\STAR_ID                            = "2MASS J16414808+3732566"
\DATA_CATEGORY                      = "Planet Radial Velocity Curve"
\NUMBER_OF_POINTS                   = "35"
\TIME_REFERENCE_FRAME               = "FCJD"
\MINIMUM_DATE                       = "2455640.898380"
\DATE_UNITS                         = "days"
\MAXIMUM_DATE                       = "2456027.872222"
\MINIMUM_VALUE                      = "-131.224"
\VALUE_UNITS                        = "m/s"
\MAXIMUM_VALUE                      = "206.790"
\REFERENCE                          = "Thomas et al. 2016 (PASP, 128, 5003)"
\BIBCODE                            = "2016PASP..128d5003T"
\TELESCOPE                          = "2.5m Sloan Foundation Telescope"
\INSTRUMENT                         = "MARVELS"
\WAVELENGTH_CALIBRATION_TECHNIQUE   = "Tungsten Iodine Lamp"
\OBSERVATORY_SITE                   = "Apache Point Observatory, New Mexico"
\COLUMN_FCJD                        = "Flux Centered Julian Date of observation"
\COLUMN_RADIAL_VELOCITY             = "Radial velocity relative to barycenter"
\COLUMN_RADIAL_VELOCITY_UNCERTAINTY = "Uncertainty in RADIAL_VELOCITY"
|           FCJD |   Radial_Velocity |   Radial_Velocity_Uncertainty |
|         double |            double |                        double |
|           days |               m/s |                           m/s |
  2455640.898380              54.319                          42.212
  2455641.895637              21.027                          46.436
  2455642.890914             148.255                          78.866
  2455643.883183             -99.085                          48.549
  2455644.916736             -16.264                          50.350
  2455645.911296             -34.287                          47.678
  2455664.831632            -116.270                          57.814
  2455665.825498             -69.733                          58.390
  2455666.830220              21.451                          56.508
  2455667.836227             -47.116                          51.182
  2455668.842627            -105.740                          47.614
  2455669.866944             -17.744                          43.169
  2455671.966412             -70.161                          42.493
  2455672.936551              70.589                          57.702
  2455673.953924               9.197                          59.176
  2455694.893391             -73.671                          49.747
  2455695.847176            -131.224                          50.630
  2455695.886667            -125.823                          52.742
  2455696.850590              27.658                          81.839
  2455696.890567             121.530                          55.213
  2455697.861366              22.575                          37.853
  2455697.901910             -26.823                          53.775
  2455698.886204              24.838                          54.456
  2455727.752199              87.180                          62.681
  2455728.746007             206.790                          46.713
  2455753.652199             162.896                          44.695
  2455758.663958             167.206                          42.906
  2455965.000694             -39.605                          52.597
  2455968.990382            -100.530                          38.220
  2455991.935243             -40.155                          38.942
  2455991.982975             -27.360                          61.958
  2455998.936944            -106.775                          47.613
  2456022.858600              16.583                          47.825
  2456025.857674              67.271                          65.574
  2456027.872222              19.000                            -NaN
