\STAR_ID                            = "2MASS J07421400+2239264"
\DATA_CATEGORY                      = "Planet Radial Velocity Curve"
\NUMBER_OF_POINTS                   = "27"
\TIME_REFERENCE_FRAME               = "FCJD"
\MINIMUM_DATE                       = "2455575.847975"
\DATE_UNITS                         = "days"
\MAXIMUM_DATE                       = "2456022.606678"
\MINIMUM_VALUE                      = "-750.785"
\VALUE_UNITS                        = "m/s"
\MAXIMUM_VALUE                      = "921.914"
\REFERENCE                          = "Thomas et al. 2016 (PASP, 128, 5003)"
\BIBCODE                            = "2016PASP..128d5003T"
\TELESCOPE                          = "2.5m Sloan Foundation Telescope"
\INSTRUMENT                         = "MARVELS"
\WAVELENGTH_CALIBRATION_TECHNIQUE   = "Tungsten Iodine Lamp"
\OBSERVATORY_SITE                   = "Apache Point Observatory, New Mexico"
\COLUMN_FCJD                        = "Flux Centered Julian Date of observation"
\COLUMN_RADIAL_VELOCITY             = "Radial velocity relative to barycenter"
\COLUMN_RADIAL_VELOCITY_UNCERTAINTY = "Uncertainty in RADIAL_VELOCITY"
|           FCJD |   Radial_Velocity |   Radial_Velocity_Uncertainty |
|         double |            double |                        double |
|           days |               m/s |                           m/s |
  2455575.847975            -419.140                          61.185
  2455579.871493            -365.168                          64.665
  2455585.873275            -409.771                          70.345
  2455586.891817            -383.797                          61.247
  2455604.820035            -292.025                          85.688
  2455605.757975            -463.594                          53.597
  2455606.768333            -750.785                          78.988
  2455614.824780            -348.416                          95.061
  2455615.824757            -366.704                          70.415
  2455640.728542            -347.930                          62.211
  2455641.727500            -401.106                          73.761
  2455666.618912            -281.095                          88.627
  2455667.621447            -335.120                          74.533
  2455668.618113            -399.791                          45.223
  2455873.002662             247.046                          84.220
  2455876.998981             921.914                         102.119
  2455904.915972             438.790                          61.984
  2455905.901389             581.452                          68.470
  2455905.948565             492.477                          58.791
  2455928.820602             313.255                          50.704
  2455932.863750             348.488                          62.597
  2455938.821204             334.657                          85.011
  2455958.770197             396.081                          61.671
  2455959.769525             500.325                            -NaN
  2455965.811100             190.897                          57.477
  2455969.737338             581.273                          94.535
  2456022.606678             217.787                          73.272
