\STAR_ID                            = "2MASS J07332232+2039221"
\DATA_CATEGORY                      = "Planet Radial Velocity Curve"
\NUMBER_OF_POINTS                   = "27"
\TIME_REFERENCE_FRAME               = "FCJD"
\MINIMUM_DATE                       = "2455575.847975"
\DATE_UNITS                         = "days"
\MAXIMUM_DATE                       = "2456022.606678"
\MINIMUM_VALUE                      = "-629.228"
\VALUE_UNITS                        = "m/s"
\MAXIMUM_VALUE                      = "190.961"
\REFERENCE                          = "Thomas et al. 2016 (PASP, 128, 5003)"
\BIBCODE                            = "2016PASP..128d5003T"
\TELESCOPE                          = "2.5m Sloan Foundation Telescope"
\INSTRUMENT                         = "MARVELS"
\WAVELENGTH_CALIBRATION_TECHNIQUE   = "Tungsten Iodine Lamp"
\OBSERVATORY_SITE                   = "Apache Point Observatory, New Mexico"
\COLUMN_FCJD                        = "Flux Centered Julian Date of observation"
\COLUMN_RADIAL_VELOCITY             = "Radial velocity relative to barycenter"
\COLUMN_RADIAL_VELOCITY_UNCERTAINTY = "Uncertainty in RADIAL_VELOCITY"
|           FCJD |   Radial_Velocity |   Radial_Velocity_Uncertainty |
|         double |            double |                        double |
|           days |               m/s |                           m/s |
  2455575.847975             -45.791                          78.963
  2455579.871493             -17.860                          64.743
  2455585.873275               9.199                          50.487
  2455586.891817              89.692                          66.592
  2455604.820035             101.244                          61.345
  2455605.757975             154.441                          38.315
  2455606.768333               7.501                          54.478
  2455614.824780             132.769                          53.364
  2455615.824757             131.018                          46.426
  2455640.728542             181.631                          69.075
  2455641.727500             139.468                          42.954
  2455666.618912             150.094                          57.657
  2455667.621447              80.550                          62.413
  2455668.618113             190.961                          48.500
  2455873.002662            -166.845                          41.866
  2455876.998981            -629.228                          66.361
  2455904.915972            -149.566                          48.146
  2455905.901389            -202.548                          55.719
  2455905.948565            -113.160                          48.806
  2455928.820602            -102.039                            -NaN
  2455932.863750            -135.666                          36.568
  2455938.821204             -84.690                          60.249
  2455958.770197             120.265                          73.402
  2455959.769525              44.776                          58.140
  2455965.811100              25.598                          50.453
  2455969.737338              78.052                          54.522
  2456022.606678              10.133                          50.850
