\STAR_ID                            = "2MASS J07385432+2245109"
\DATA_CATEGORY                      = "Planet Radial Velocity Curve"
\NUMBER_OF_POINTS                   = "27"
\TIME_REFERENCE_FRAME               = "FCJD"
\MINIMUM_DATE                       = "2455575.847975"
\DATE_UNITS                         = "days"
\MAXIMUM_DATE                       = "2456022.606678"
\MINIMUM_VALUE                      = "-212.461"
\VALUE_UNITS                        = "m/s"
\MAXIMUM_VALUE                      = "391.001"
\REFERENCE                          = "Thomas et al. 2016 (PASP, 128, 5003)"
\BIBCODE                            = "2016PASP..128d5003T"
\TELESCOPE                          = "2.5m Sloan Foundation Telescope"
\INSTRUMENT                         = "MARVELS"
\WAVELENGTH_CALIBRATION_TECHNIQUE   = "Tungsten Iodine Lamp"
\OBSERVATORY_SITE                   = "Apache Point Observatory, New Mexico"
\COLUMN_FCJD                        = "Flux Centered Julian Date of observation"
\COLUMN_RADIAL_VELOCITY             = "Radial velocity relative to barycenter"
\COLUMN_RADIAL_VELOCITY_UNCERTAINTY = "Uncertainty in RADIAL_VELOCITY"
|           FCJD |   Radial_Velocity |   Radial_Velocity_Uncertainty |
|         double |            double |                        double |
|           days |               m/s |                           m/s |
  2455575.847975            -212.435                          59.436
  2455579.871493            -130.969                          79.976
  2455585.873275            -135.406                          60.333
  2455586.891817             -40.639                          62.458
  2455604.820035             -54.043                          55.951
  2455605.757975            -192.388                          56.035
  2455606.768333              38.683                          63.001
  2455614.824780            -212.461                          65.504
  2455615.824757            -201.481                          61.717
  2455640.728542             205.274                          77.786
  2455641.727500             184.018                          79.208
  2455666.618912              29.246                          99.092
  2455667.621447             141.433                          55.255
  2455668.618113             226.066                          51.153
  2455873.002662             -66.603                          57.871
  2455876.998981             169.075                         107.063
  2455904.915972              23.900                          54.880
  2455905.901389             -35.726                          57.230
  2455905.948565             -73.063                          64.289
  2455928.820602             -36.428                            -NaN
  2455932.863750            -108.284                          69.067
  2455938.821204              28.642                          95.390
  2455958.770197             -37.000                          93.598
  2455959.769525              38.688                          57.164
  2455965.811100              53.732                          60.706
  2455969.737338               7.169                          94.191
  2456022.606678             391.001                          84.492
