\STAR_ID                            = "2MASS J07325520+2050226"
\DATA_CATEGORY                      = "Planet Radial Velocity Curve"
\NUMBER_OF_POINTS                   = "27"
\TIME_REFERENCE_FRAME               = "FCJD"
\MINIMUM_DATE                       = "2455575.847975"
\DATE_UNITS                         = "days"
\MAXIMUM_DATE                       = "2456022.606678"
\MINIMUM_VALUE                      = "-455.903"
\VALUE_UNITS                        = "m/s"
\MAXIMUM_VALUE                      = "849.727"
\REFERENCE                          = "Thomas et al. 2016 (PASP, 128, 5003)"
\BIBCODE                            = "2016PASP..128d5003T"
\TELESCOPE                          = "2.5m Sloan Foundation Telescope"
\INSTRUMENT                         = "MARVELS"
\WAVELENGTH_CALIBRATION_TECHNIQUE   = "Tungsten Iodine Lamp"
\OBSERVATORY_SITE                   = "Apache Point Observatory, New Mexico"
\COLUMN_FCJD                        = "Flux Centered Julian Date of observation"
\COLUMN_RADIAL_VELOCITY             = "Radial velocity relative to barycenter"
\COLUMN_RADIAL_VELOCITY_UNCERTAINTY = "Uncertainty in RADIAL_VELOCITY"
|           FCJD |   Radial_Velocity |   Radial_Velocity_Uncertainty |
|         double |            double |                        double |
|           days |               m/s |                           m/s |
  2455575.847975            -228.522                          77.813
  2455579.871493            -455.903                         100.478
  2455585.873275             -63.119                          83.830
  2455586.891817             -14.901                          84.382
  2455604.820035              35.817                          87.089
  2455605.757975             141.526                          92.048
  2455606.768333            -375.214                         108.393
  2455614.824780            -410.485                          93.661
  2455615.824757            -121.975                          84.139
  2455640.728542            -278.022                          82.612
  2455641.727500             -56.998                          89.377
  2455666.618912              -8.418                         104.093
  2455667.621447             181.880                         110.609
  2455668.618113            -170.259                          80.126
  2455873.002662              47.850                          84.019
  2455876.998981             849.727                         113.050
  2455904.915972              62.413                          75.032
  2455905.901389             381.297                          82.924
  2455905.948565             368.055                          79.486
  2455928.820602             203.931                            -NaN
  2455932.863750              68.986                          57.452
  2455938.821204            -262.232                          97.272
  2455958.770197             324.885                         113.544
  2455959.769525              98.770                          69.541
  2455965.811100            -199.089                          85.558
  2455969.737338            -147.382                          87.907
  2456022.606678              27.385                         113.926
