\STAR_ID                            = "2MASS J16381253+3736082"
\DATA_CATEGORY                      = "Planet Radial Velocity Curve"
\NUMBER_OF_POINTS                   = "35"
\TIME_REFERENCE_FRAME               = "FCJD"
\MINIMUM_DATE                       = "2455640.898380"
\DATE_UNITS                         = "days"
\MAXIMUM_DATE                       = "2456027.872222"
\MINIMUM_VALUE                      = "-10021.893"
\VALUE_UNITS                        = "m/s"
\MAXIMUM_VALUE                      = "5137.071"
\REFERENCE                          = "Thomas et al. 2016 (PASP, 128, 5003)"
\BIBCODE                            = "2016PASP..128d5003T"
\TELESCOPE                          = "2.5m Sloan Foundation Telescope"
\INSTRUMENT                         = "MARVELS"
\WAVELENGTH_CALIBRATION_TECHNIQUE   = "Tungsten Iodine Lamp"
\OBSERVATORY_SITE                   = "Apache Point Observatory, New Mexico"
\COLUMN_FCJD                        = "Flux Centered Julian Date of observation"
\COLUMN_RADIAL_VELOCITY             = "Radial velocity relative to barycenter"
\COLUMN_RADIAL_VELOCITY_UNCERTAINTY = "Uncertainty in RADIAL_VELOCITY"
|           FCJD |   Radial_Velocity |   Radial_Velocity_Uncertainty |
|         double |            double |                        double |
|           days |               m/s |                           m/s |
  2455640.898380              13.287                          66.770
  2455641.895637              81.501                          78.451
  2455642.890914             233.810                         111.638
  2455643.883183             180.783                          70.321
  2455644.916736             228.308                          78.612
  2455645.911296             289.570                          67.145
  2455664.831632            1403.066                          80.649
  2455665.825498            1419.224                          83.826
  2455666.830220            1548.590                          92.278
  2455667.836227            1548.581                          77.792
  2455668.842627            1579.985                          77.820
  2455669.866944            1633.942                          77.742
  2455671.966412            1782.987                          76.806
  2455672.936551            1830.184                         120.852
  2455673.953924            1920.482                          74.296
  2455694.893391            2817.271                          74.313
  2455695.847176            2985.832                          62.629
  2455695.886667            2932.676                          79.821
  2455696.850590            2814.650                          80.314
  2455696.890567            2881.480                          79.090
  2455697.861366            2928.350                          71.390
  2455697.901910            2915.249                          67.091
  2455698.886204            2925.984                          63.032
  2455727.752199            4023.539                          87.914
  2455728.746007            4217.371                          78.231
  2455753.652199            5099.346                          93.673
  2455758.663958            5137.071                          74.021
  2455965.000694           -3675.862                          70.644
  2455968.990382           -4069.262                          63.590
  2455991.935243           -6414.051                          86.381
  2455991.982975           -6466.498                          49.730
  2455998.936944           -7273.786                          52.084
  2456022.858600           -9508.488                          45.534
  2456025.857674           -9943.271                          58.035
  2456027.872222          -10021.893                            -NaN
