\STAR_ID                            = "2MASS J16351881+3557131"
\DATA_CATEGORY                      = "Planet Radial Velocity Curve"
\NUMBER_OF_POINTS                   = "35"
\TIME_REFERENCE_FRAME               = "FCJD"
\MINIMUM_DATE                       = "2455640.898380"
\DATE_UNITS                         = "days"
\MAXIMUM_DATE                       = "2456027.872222"
\MINIMUM_VALUE                      = "-5689.897"
\VALUE_UNITS                        = "m/s"
\MAXIMUM_VALUE                      = "1924.510"
\REFERENCE                          = "Thomas et al. 2016 (PASP, 128, 5003)"
\BIBCODE                            = "2016PASP..128d5003T"
\TELESCOPE                          = "2.5m Sloan Foundation Telescope"
\INSTRUMENT                         = "MARVELS"
\WAVELENGTH_CALIBRATION_TECHNIQUE   = "Tungsten Iodine Lamp"
\OBSERVATORY_SITE                   = "Apache Point Observatory, New Mexico"
\COLUMN_FCJD                        = "Flux Centered Julian Date of observation"
\COLUMN_RADIAL_VELOCITY             = "Radial velocity relative to barycenter"
\COLUMN_RADIAL_VELOCITY_UNCERTAINTY = "Uncertainty in RADIAL_VELOCITY"
|           FCJD |   Radial_Velocity |   Radial_Velocity_Uncertainty |
|         double |            double |                        double |
|           days |               m/s |                           m/s |
  2455640.898380            1850.094                         124.168
  2455641.895637            1774.501                         147.538
  2455642.890914            1680.447                         212.076
  2455643.883183            1625.708                         120.947
  2455644.916736            1924.510                         145.877
  2455645.911296            1545.393                         145.991
  2455664.831632            1013.008                         116.624
  2455665.825498             906.150                         177.458
  2455666.830220            1064.515                         139.737
  2455667.836227             961.852                         111.889
  2455668.842627             761.818                         118.491
  2455669.866944             804.379                         132.738
  2455671.966412             817.044                         100.602
  2455672.936551             809.859                         172.168
  2455673.953924             745.714                         154.589
  2455694.893391             198.576                         242.648
  2455695.847176             281.859                         130.931
  2455695.886667             137.037                         173.702
  2455696.850590             -75.125                         184.948
  2455696.890567              -5.897                         204.371
  2455697.861366             233.044                         126.834
  2455697.901910             290.858                         196.062
  2455698.886204            -162.227                         189.698
  2455727.752199            -944.926                         190.535
  2455728.746007            -436.245                         226.340
  2455753.652199           -1728.537                         125.143
  2455758.663958           -2107.328                         101.724
  2455965.000694           -5689.897                         149.458
  2455968.990382           -5129.344                         237.588
  2455991.935243           -2238.932                         128.950
  2455991.982975           -2604.523                         170.464
  2455998.936944           -1505.255                         142.700
  2456022.858600             883.538                          94.020
  2456025.857674            1094.341                         215.269
  2456027.872222            1223.994                            -NaN
