\STAR_ID                            = "2MASS J07362068+2212333"
\DATA_CATEGORY                      = "Planet Radial Velocity Curve"
\NUMBER_OF_POINTS                   = "27"
\TIME_REFERENCE_FRAME               = "FCJD"
\MINIMUM_DATE                       = "2455575.847975"
\DATE_UNITS                         = "days"
\MAXIMUM_DATE                       = "2456022.606678"
\MINIMUM_VALUE                      = "-245.580"
\VALUE_UNITS                        = "m/s"
\MAXIMUM_VALUE                      = "281.524"
\REFERENCE                          = "Thomas et al. 2016 (PASP, 128, 5003)"
\BIBCODE                            = "2016PASP..128d5003T"
\TELESCOPE                          = "2.5m Sloan Foundation Telescope"
\INSTRUMENT                         = "MARVELS"
\WAVELENGTH_CALIBRATION_TECHNIQUE   = "Tungsten Iodine Lamp"
\OBSERVATORY_SITE                   = "Apache Point Observatory, New Mexico"
\COLUMN_FCJD                        = "Flux Centered Julian Date of observation"
\COLUMN_RADIAL_VELOCITY             = "Radial velocity relative to barycenter"
\COLUMN_RADIAL_VELOCITY_UNCERTAINTY = "Uncertainty in RADIAL_VELOCITY"
|           FCJD |   Radial_Velocity |   Radial_Velocity_Uncertainty |
|         double |            double |                        double |
|           days |               m/s |                           m/s |
  2455575.847975            -225.793                         105.719
  2455579.871493              17.240                         125.242
  2455585.873275             138.407                         153.635
  2455586.891817              45.532                         126.311
  2455604.820035            -128.800                         109.913
  2455605.757975             106.836                          92.710
  2455606.768333            -121.447                         117.036
  2455614.824780              46.467                         120.009
  2455615.824757              11.318                         106.182
  2455640.728542              48.954                         130.638
  2455641.727500             -18.572                         105.633
  2455666.618912             108.064                         147.657
  2455667.621447             190.916                         118.852
  2455668.618113              98.273                         126.743
  2455873.002662            -103.532                          71.230
  2455876.998981             281.524                         139.211
  2455904.915972               3.894                         147.021
  2455905.901389             -42.606                         130.611
  2455905.948565             -99.281                         145.829
  2455928.820602            -105.505                            -NaN
  2455932.863750              16.407                          50.277
  2455938.821204            -171.908                         110.149
  2455958.770197            -245.580                         166.451
  2455959.769525             -26.657                          97.678
  2455965.811100             109.250                          89.269
  2455969.737338              89.364                          99.546
  2456022.606678             -22.767                         169.110
