\STAR_ID                            = "2MASS J08175130+3107455"
\DATA_CATEGORY                      = "Planet Radial Velocity Curve"
\NUMBER_OF_POINTS                   = "27"
\TIME_REFERENCE_FRAME               = "FCJD"
\MINIMUM_DATE                       = "2455577.886238"
\DATE_UNITS                         = "days"
\MAXIMUM_DATE                       = "2456022.681308"
\MINIMUM_VALUE                      = "-101.827"
\VALUE_UNITS                        = "m/s"
\MAXIMUM_VALUE                      = "93.979"
\REFERENCE                          = "Thomas et al. 2016 (PASP, 128, 5003)"
\BIBCODE                            = "2016PASP..128d5003T"
\TELESCOPE                          = "2.5m Sloan Foundation Telescope"
\INSTRUMENT                         = "MARVELS"
\WAVELENGTH_CALIBRATION_TECHNIQUE   = "Tungsten Iodine Lamp"
\OBSERVATORY_SITE                   = "Apache Point Observatory, New Mexico"
\COLUMN_FCJD                        = "Flux Centered Julian Date of observation"
\COLUMN_RADIAL_VELOCITY             = "Radial velocity relative to barycenter"
\COLUMN_RADIAL_VELOCITY_UNCERTAINTY = "Uncertainty in RADIAL_VELOCITY"
|           FCJD |   Radial_Velocity |   Radial_Velocity_Uncertainty |
|         double |            double |                        double |
|           days |               m/s |                           m/s |
  2455577.886238              33.667                          47.467
  2455585.916377              30.413                          68.753
  2455586.934907             -39.309                          63.820
  2455604.863553             -71.188                          62.649
  2455605.803021             -97.671                          71.496
  2455606.805706                -NaN                            -NaN
  2455607.769595              93.979                          65.749
  2455612.759560              74.423                          92.026
  2455640.772083              36.312                          44.325
  2455641.769444              73.399                          55.117
  2455643.752755              13.612                          64.706
  2455644.784606              18.018                          70.964
  2455666.662465              62.314                          72.390
  2455667.666007              19.262                          64.504
  2455668.662685              28.001                          57.525
  2455669.666597              77.000                          78.544
  2455672.721030              55.020                          61.576
  2455695.635174              29.663                          85.982
  2455696.635255               9.896                          86.862
  2455697.642002             -22.097                          68.134
  2455698.637674             -27.722                          59.358
  2455904.978449            -101.827                            -NaN
  2455906.013368             -65.603                          40.584
  2455932.917951             -97.661                          49.845
  2455938.898785             -51.497                          68.371
  2455960.806574             -63.461                          66.179
  2456022.681308             -16.945                          63.666
