\STAR_ID                            = "2MASS J08115931+3229180"
\DATA_CATEGORY                      = "Planet Radial Velocity Curve"
\NUMBER_OF_POINTS                   = "27"
\TIME_REFERENCE_FRAME               = "FCJD"
\MINIMUM_DATE                       = "2455577.886238"
\DATE_UNITS                         = "days"
\MAXIMUM_DATE                       = "2456022.681308"
\MINIMUM_VALUE                      = "-588.208"
\VALUE_UNITS                        = "m/s"
\MAXIMUM_VALUE                      = "1008.069"
\REFERENCE                          = "Thomas et al. 2016 (PASP, 128, 5003)"
\BIBCODE                            = "2016PASP..128d5003T"
\TELESCOPE                          = "2.5m Sloan Foundation Telescope"
\INSTRUMENT                         = "MARVELS"
\WAVELENGTH_CALIBRATION_TECHNIQUE   = "Tungsten Iodine Lamp"
\OBSERVATORY_SITE                   = "Apache Point Observatory, New Mexico"
\COLUMN_FCJD                        = "Flux Centered Julian Date of observation"
\COLUMN_RADIAL_VELOCITY             = "Radial velocity relative to barycenter"
\COLUMN_RADIAL_VELOCITY_UNCERTAINTY = "Uncertainty in RADIAL_VELOCITY"
|           FCJD |   Radial_Velocity |   Radial_Velocity_Uncertainty |
|         double |            double |                        double |
|           days |               m/s |                           m/s |
  2455577.886238             -39.440                          61.935
  2455585.916377            -247.371                          85.337
  2455586.934907            -133.879                          73.258
  2455604.863553            -160.624                          88.045
  2455605.803021            -241.555                          68.476
  2455606.805706            -588.208                          91.581
  2455607.769595            -140.320                          74.532
  2455612.759560            -290.384                          74.659
  2455640.772083            -108.448                          92.125
  2455641.769444             -79.505                          62.078
  2455643.752755             119.937                          70.388
  2455644.784606             -47.625                          53.611
  2455666.662465              15.468                          94.911
  2455667.666007             119.582                          73.024
  2455668.662685              71.108                            -NaN
  2455669.666597             110.828                          68.183
  2455672.721030              80.239                          67.021
  2455695.635174             165.773                          68.593
  2455696.635255             530.031                          79.231
  2455697.642002             203.452                          75.690
  2455698.637674             367.580                          66.584
  2455904.978449            -224.815                          85.581
  2455906.013368            -172.757                          70.500
  2455932.917951            -156.784                          71.012
  2455938.898785            -334.864                          71.828
  2455960.806574             174.510                          58.925
  2456022.681308            1008.069                          94.562
