\STAR_ID                            = "2MASS J16490271+3648549"
\DATA_CATEGORY                      = "Planet Radial Velocity Curve"
\NUMBER_OF_POINTS                   = "35"
\TIME_REFERENCE_FRAME               = "FCJD"
\MINIMUM_DATE                       = "2455640.898380"
\DATE_UNITS                         = "days"
\MAXIMUM_DATE                       = "2456027.872222"
\MINIMUM_VALUE                      = "-3894.687"
\VALUE_UNITS                        = "m/s"
\MAXIMUM_VALUE                      = "2041.143"
\REFERENCE                          = "Thomas et al. 2016 (PASP, 128, 5003)"
\BIBCODE                            = "2016PASP..128d5003T"
\TELESCOPE                          = "2.5m Sloan Foundation Telescope"
\INSTRUMENT                         = "MARVELS"
\WAVELENGTH_CALIBRATION_TECHNIQUE   = "Tungsten Iodine Lamp"
\OBSERVATORY_SITE                   = "Apache Point Observatory, New Mexico"
\COLUMN_FCJD                        = "Flux Centered Julian Date of observation"
\COLUMN_RADIAL_VELOCITY             = "Radial velocity relative to barycenter"
\COLUMN_RADIAL_VELOCITY_UNCERTAINTY = "Uncertainty in RADIAL_VELOCITY"
|           FCJD |   Radial_Velocity |   Radial_Velocity_Uncertainty |
|         double |            double |                        double |
|           days |               m/s |                           m/s |
  2455640.898380             972.869                          60.214
  2455641.895637             876.178                          64.498
  2455642.890914                -NaN                            -NaN
  2455643.883183            1075.911                          78.749
  2455644.916736             973.638                          65.061
  2455645.911296            1018.532                          62.410
  2455664.831632             843.182                          66.024
  2455665.825498             877.512                          93.338
  2455666.830220             450.828                          82.923
  2455667.836227             660.934                          64.254
  2455668.842627             749.066                          95.440
  2455669.866944             618.903                          65.859
  2455671.966412             556.073                          51.947
  2455672.936551                -NaN                            -NaN
  2455673.953924             340.487                          67.359
  2455694.893391             269.404                          52.325
  2455695.847176             269.836                          71.071
  2455695.886667             304.483                          80.952
  2455696.850590             136.550                          96.592
  2455696.890567             -16.214                          86.764
  2455697.861366              56.329                          75.844
  2455697.901910             280.281                          68.502
  2455698.886204             245.484                          63.985
  2455727.752199            -673.384                         103.414
  2455728.746007            -339.171                          72.117
  2455753.652199           -1114.354                          95.800
  2455758.663958            -987.248                          63.529
  2455965.000694           -3879.053                         115.608
  2455968.990382           -3894.687                          93.246
  2455991.935243           -2302.720                          82.183
  2455991.982975           -2080.517                          92.620
  2455998.936944           -1538.307                          73.598
  2456022.858600            1297.124                          66.606
  2456025.857674            1910.909                          82.230
  2456027.872222            2041.143                            -NaN
