\STAR_ID                            = "2MASS J07372567+2257467"
\DATA_CATEGORY                      = "Planet Radial Velocity Curve"
\NUMBER_OF_POINTS                   = "27"
\TIME_REFERENCE_FRAME               = "FCJD"
\MINIMUM_DATE                       = "2455575.847975"
\DATE_UNITS                         = "days"
\MAXIMUM_DATE                       = "2456022.606678"
\MINIMUM_VALUE                      = "-433.342"
\VALUE_UNITS                        = "m/s"
\MAXIMUM_VALUE                      = "133.744"
\REFERENCE                          = "Thomas et al. 2016 (PASP, 128, 5003)"
\BIBCODE                            = "2016PASP..128d5003T"
\TELESCOPE                          = "2.5m Sloan Foundation Telescope"
\INSTRUMENT                         = "MARVELS"
\WAVELENGTH_CALIBRATION_TECHNIQUE   = "Tungsten Iodine Lamp"
\OBSERVATORY_SITE                   = "Apache Point Observatory, New Mexico"
\COLUMN_FCJD                        = "Flux Centered Julian Date of observation"
\COLUMN_RADIAL_VELOCITY             = "Radial velocity relative to barycenter"
\COLUMN_RADIAL_VELOCITY_UNCERTAINTY = "Uncertainty in RADIAL_VELOCITY"
|           FCJD |   Radial_Velocity |   Radial_Velocity_Uncertainty |
|         double |            double |                        double |
|           days |               m/s |                           m/s |
  2455575.847975            -100.560                          71.026
  2455579.871493             -76.699                          87.503
  2455585.873275              48.182                          91.655
  2455586.891817             -30.718                          92.443
  2455604.820035            -237.377                          84.511
  2455605.757975             -24.120                          63.080
  2455606.768333              46.772                          86.966
  2455614.824780              12.491                          59.294
  2455615.824757             -14.005                          75.544
  2455640.728542              77.654                          72.237
  2455641.727500              78.851                          74.981
  2455666.618912              89.183                          78.653
  2455667.621447             108.667                          77.416
  2455668.618113              66.086                          69.098
  2455873.002662             -24.598                          79.067
  2455876.998981            -433.342                         147.212
  2455904.915972             -82.881                          79.050
  2455905.901389             -34.187                          92.938
  2455905.948565              26.243                          73.202
  2455928.820602              -5.330                          76.826
  2455932.863750              64.958                          82.768
  2455938.821204             101.517                          82.811
  2455958.770197              38.814                          73.678
  2455959.769525              55.444                            -NaN
  2455965.811100              56.596                          62.888
  2455969.737338             133.744                         116.183
  2456022.606678              58.614                          93.850
