\STAR_ID                            = "2MASS J07345133+2157202"
\DATA_CATEGORY                      = "Planet Radial Velocity Curve"
\NUMBER_OF_POINTS                   = "27"
\TIME_REFERENCE_FRAME               = "FCJD"
\MINIMUM_DATE                       = "2455575.847975"
\DATE_UNITS                         = "days"
\MAXIMUM_DATE                       = "2456022.606678"
\MINIMUM_VALUE                      = "-586.316"
\VALUE_UNITS                        = "m/s"
\MAXIMUM_VALUE                      = "407.849"
\REFERENCE                          = "Thomas et al. 2016 (PASP, 128, 5003)"
\BIBCODE                            = "2016PASP..128d5003T"
\TELESCOPE                          = "2.5m Sloan Foundation Telescope"
\INSTRUMENT                         = "MARVELS"
\WAVELENGTH_CALIBRATION_TECHNIQUE   = "Tungsten Iodine Lamp"
\OBSERVATORY_SITE                   = "Apache Point Observatory, New Mexico"
\COLUMN_FCJD                        = "Flux Centered Julian Date of observation"
\COLUMN_RADIAL_VELOCITY             = "Radial velocity relative to barycenter"
\COLUMN_RADIAL_VELOCITY_UNCERTAINTY = "Uncertainty in RADIAL_VELOCITY"
|           FCJD |   Radial_Velocity |   Radial_Velocity_Uncertainty |
|         double |            double |                        double |
|           days |               m/s |                           m/s |
  2455575.847975             -32.239                          90.283
  2455579.871493              93.803                         125.252
  2455585.873275             124.202                          86.607
  2455586.891817              73.472                         115.763
  2455604.820035             -59.553                          96.463
  2455605.757975             203.121                          92.572
  2455606.768333             106.113                         106.632
  2455614.824780              91.095                          85.645
  2455615.824757              63.877                         119.442
  2455640.728542            -146.690                          94.741
  2455641.727500            -586.316                         115.243
  2455666.618912            -195.865                         115.550
  2455667.621447            -327.111                         114.265
  2455668.618113            -310.681                          52.495
  2455873.002662              84.344                         108.405
  2455876.998981             174.218                         184.522
  2455904.915972              83.664                          98.711
  2455905.901389              15.815                         140.800
  2455905.948565             407.849                         135.007
  2455928.820602             -52.321                            -NaN
  2455932.863750             -68.628                          73.864
  2455938.821204             303.621                         104.471
  2455958.770197              90.820                         132.765
  2455959.769525             -13.943                         128.186
  2455965.811100              -5.286                          70.380
  2455969.737338             214.599                         106.584
  2456022.606678            -331.981                         141.601
