\STAR_ID                            = "2MASS J07342292+2040469"
\DATA_CATEGORY                      = "Planet Radial Velocity Curve"
\NUMBER_OF_POINTS                   = "27"
\TIME_REFERENCE_FRAME               = "FCJD"
\MINIMUM_DATE                       = "2455575.847975"
\DATE_UNITS                         = "days"
\MAXIMUM_DATE                       = "2456022.606678"
\MINIMUM_VALUE                      = "-384.645"
\VALUE_UNITS                        = "m/s"
\MAXIMUM_VALUE                      = "735.407"
\REFERENCE                          = "Thomas et al. 2016 (PASP, 128, 5003)"
\BIBCODE                            = "2016PASP..128d5003T"
\TELESCOPE                          = "2.5m Sloan Foundation Telescope"
\INSTRUMENT                         = "MARVELS"
\WAVELENGTH_CALIBRATION_TECHNIQUE   = "Tungsten Iodine Lamp"
\OBSERVATORY_SITE                   = "Apache Point Observatory, New Mexico"
\COLUMN_FCJD                        = "Flux Centered Julian Date of observation"
\COLUMN_RADIAL_VELOCITY             = "Radial velocity relative to barycenter"
\COLUMN_RADIAL_VELOCITY_UNCERTAINTY = "Uncertainty in RADIAL_VELOCITY"
|           FCJD |   Radial_Velocity |   Radial_Velocity_Uncertainty |
|         double |            double |                        double |
|           days |               m/s |                           m/s |
  2455575.847975            -220.629                         108.943
  2455579.871493            -214.511                         160.520
  2455585.873275              46.056                          67.338
  2455586.891817            -168.534                         117.560
  2455604.820035              -6.714                          71.369
  2455605.757975            -233.414                          73.789
  2455606.768333            -384.645                          97.569
  2455614.824780            -107.116                          98.770
  2455615.824757             -21.846                         137.339
  2455640.728542             -78.627                         139.502
  2455641.727500             -85.695                         176.505
  2455666.618912             124.314                         114.891
  2455667.621447              -3.710                         137.145
  2455668.618113            -101.121                         124.884
  2455873.002662             186.744                          94.411
  2455876.998981             735.407                         115.189
  2455904.915972             179.381                         124.859
  2455905.901389             323.308                         212.394
  2455905.948565             314.060                         180.071
  2455928.820602             198.707                            -NaN
  2455932.863750             118.209                          80.260
  2455938.821204              10.800                         136.509
  2455958.770197             -73.712                         146.989
  2455959.769525             -85.979                         140.301
  2455965.811100            -116.769                         112.410
  2455969.737338            -144.728                          75.429
  2456022.606678            -189.237                         127.308
