\STAR_ID                            = "2MASS J00290817+6330356"
\DATA_CATEGORY                      = "Planet Radial Velocity Curve"
\NUMBER_OF_POINTS                   = "34"
\TIME_REFERENCE_FRAME               = "FCJD"
\MINIMUM_DATE                       = "2455846.596250"
\DATE_UNITS                         = "days"
\MAXIMUM_DATE                       = "2455848.622222"
\MINIMUM_VALUE                      = "-526.163"
\VALUE_UNITS                        = "m/s"
\MAXIMUM_VALUE                      = "239.686"
\REFERENCE                          = "Thomas et al. 2016 (PASP, 128, 5003)"
\BIBCODE                            = "2016PASP..128d5003T"
\TELESCOPE                          = "2.5m Sloan Foundation Telescope"
\INSTRUMENT                         = "MARVELS"
\WAVELENGTH_CALIBRATION_TECHNIQUE   = "Tungsten Iodine Lamp"
\OBSERVATORY_SITE                   = "Apache Point Observatory, New Mexico"
\COLUMN_FCJD                        = "Flux Centered Julian Date of observation"
\COLUMN_RADIAL_VELOCITY             = "Radial velocity relative to barycenter"
\COLUMN_RADIAL_VELOCITY_UNCERTAINTY = "Uncertainty in RADIAL_VELOCITY"
|           FCJD |   Radial_Velocity |   Radial_Velocity_Uncertainty |
|         double |            double |                        double |
|           days |               m/s |                           m/s |
  2455846.596250             -14.853                         143.855
  2455846.602407             143.463                         165.459
  2455846.606019            -143.060                         156.108
  2455846.609676            -103.068                         196.588
  2455846.629120              71.382                         189.211
  2455846.632824              52.475                         173.459
  2455846.636470              51.516                         175.763
  2455846.639838              22.983                         165.938
  2455846.643206             239.686                         170.152
  2455846.652280            -180.872                            -NaN
  2455846.656285             -49.049                         229.624
  2455846.661331            -163.903                         225.917
  2455846.665394             -65.337                         153.167
  2455846.669931             175.590                         138.829
  2455846.674016            -143.996                         148.968
  2455846.678241              95.008                         163.950
  2455846.684514             117.663                         205.016
  2455846.688484              86.682                         205.562
  2455846.692512              49.651                         158.521
  2455848.570347             -28.118                         145.141
  2455848.575012              69.111                         187.626
  2455848.579039            -150.953                         149.878
  2455848.582650             -26.163                         159.324
  2455848.586308             145.010                         163.346
  2455848.590544              68.890                         174.293
  2455848.593924             123.197                         180.288
  2455848.597604             148.641                         207.778
  2455848.600984             155.889                         211.693
  2455848.604468              33.013                         155.007
  2455848.608391             -68.865                         157.093
  2455848.611620              15.535                         148.643
  2455848.615208            -526.163                         273.840
  2455848.618715            -118.108                         169.004
  2455848.622222             -82.877                         153.068
