\STAR_ID                            = "2MASS J00190405+6355321"
\DATA_CATEGORY                      = "Planet Radial Velocity Curve"
\NUMBER_OF_POINTS                   = "34"
\TIME_REFERENCE_FRAME               = "FCJD"
\MINIMUM_DATE                       = "2455846.596250"
\DATE_UNITS                         = "days"
\MAXIMUM_DATE                       = "2455848.622222"
\MINIMUM_VALUE                      = "-144.521"
\VALUE_UNITS                        = "m/s"
\MAXIMUM_VALUE                      = "129.590"
\REFERENCE                          = "Thomas et al. 2016 (PASP, 128, 5003)"
\BIBCODE                            = "2016PASP..128d5003T"
\TELESCOPE                          = "2.5m Sloan Foundation Telescope"
\INSTRUMENT                         = "MARVELS"
\WAVELENGTH_CALIBRATION_TECHNIQUE   = "Tungsten Iodine Lamp"
\OBSERVATORY_SITE                   = "Apache Point Observatory, New Mexico"
\COLUMN_FCJD                        = "Flux Centered Julian Date of observation"
\COLUMN_RADIAL_VELOCITY             = "Radial velocity relative to barycenter"
\COLUMN_RADIAL_VELOCITY_UNCERTAINTY = "Uncertainty in RADIAL_VELOCITY"
|           FCJD |   Radial_Velocity |   Radial_Velocity_Uncertainty |
|         double |            double |                        double |
|           days |               m/s |                           m/s |
  2455846.596250              -9.872                          51.317
  2455846.602407             -62.425                          55.435
  2455846.606019            -117.344                          51.879
  2455846.609676             -14.076                          84.111
  2455846.629120              35.183                          46.469
  2455846.632824             -79.855                          40.873
  2455846.636470             -26.664                          74.802
  2455846.639838              45.896                          90.082
  2455846.643206            -144.521                          69.659
  2455846.652280               1.447                            -NaN
  2455846.656285             -27.488                          39.782
  2455846.661331              94.518                          46.550
  2455846.665394              41.036                          57.282
  2455846.669931             -41.828                          60.070
  2455846.674016             -20.815                          46.993
  2455846.678241              45.500                          44.649
  2455846.684514              54.408                          53.157
  2455846.688484              40.837                          53.778
  2455846.692512             -25.410                          59.477
  2455848.570347              -5.302                          79.131
  2455848.575012             -10.883                          52.315
  2455848.579039              -5.092                          43.621
  2455848.582650              56.621                          82.417
  2455848.586308             -43.332                          62.544
  2455848.590544              44.858                          46.260
  2455848.593924              27.135                          52.183
  2455848.597604              -2.771                          49.971
  2455848.600984             129.590                          94.363
  2455848.604468              19.011                          59.664
  2455848.608391             -40.906                          44.591
  2455848.611620            -100.404                          51.556
  2455848.615208              97.363                          66.367
  2455848.618715              21.988                          50.482
  2455848.622222              23.599                          49.726
