\STAR_ID                            = "2MASS J07372732+2231562"
\DATA_CATEGORY                      = "Planet Radial Velocity Curve"
\NUMBER_OF_POINTS                   = "27"
\TIME_REFERENCE_FRAME               = "FCJD"
\MINIMUM_DATE                       = "2455575.847975"
\DATE_UNITS                         = "days"
\MAXIMUM_DATE                       = "2456022.606678"
\MINIMUM_VALUE                      = "-336.709"
\VALUE_UNITS                        = "m/s"
\MAXIMUM_VALUE                      = "265.812"
\REFERENCE                          = "Thomas et al. 2016 (PASP, 128, 5003)"
\BIBCODE                            = "2016PASP..128d5003T"
\TELESCOPE                          = "2.5m Sloan Foundation Telescope"
\INSTRUMENT                         = "MARVELS"
\WAVELENGTH_CALIBRATION_TECHNIQUE   = "Tungsten Iodine Lamp"
\OBSERVATORY_SITE                   = "Apache Point Observatory, New Mexico"
\COLUMN_FCJD                        = "Flux Centered Julian Date of observation"
\COLUMN_RADIAL_VELOCITY             = "Radial velocity relative to barycenter"
\COLUMN_RADIAL_VELOCITY_UNCERTAINTY = "Uncertainty in RADIAL_VELOCITY"
|           FCJD |   Radial_Velocity |   Radial_Velocity_Uncertainty |
|         double |            double |                        double |
|           days |               m/s |                           m/s |
  2455575.847975             -97.449                          77.927
  2455579.871493             147.620                          88.981
  2455585.873275              32.749                          76.960
  2455586.891817              24.065                          90.918
  2455604.820035             -91.863                         107.420
  2455605.757975             -87.505                          62.418
  2455606.768333              70.034                          99.466
  2455614.824780            -105.276                         127.856
  2455615.824757             -27.708                          78.985
  2455640.728542             -21.891                         103.440
  2455641.727500              87.811                          89.004
  2455666.618912             -16.682                          69.735
  2455667.621447             -45.181                          85.208
  2455668.618113             -32.804                          79.391
  2455873.002662              -8.402                         103.322
  2455876.998981             153.758                          98.605
  2455904.915972              98.476                          83.328
  2455905.901389              77.373                          81.449
  2455905.948565             149.656                          78.480
  2455928.820602             -38.313                         105.605
  2455932.863750              95.694                          92.100
  2455938.821204             265.812                         150.544
  2455958.770197            -113.827                         104.449
  2455959.769525              29.469                            -NaN
  2455965.811100            -176.849                          65.062
  2455969.737338             -32.056                         105.190
  2456022.606678            -336.709                          88.225
