\STAR_ID                            = "2MASS J07360605+2028552"
\DATA_CATEGORY                      = "Planet Radial Velocity Curve"
\NUMBER_OF_POINTS                   = "27"
\TIME_REFERENCE_FRAME               = "FCJD"
\MINIMUM_DATE                       = "2455575.847975"
\DATE_UNITS                         = "days"
\MAXIMUM_DATE                       = "2456022.606678"
\MINIMUM_VALUE                      = "-182.504"
\VALUE_UNITS                        = "m/s"
\MAXIMUM_VALUE                      = "199.094"
\REFERENCE                          = "Thomas et al. 2016 (PASP, 128, 5003)"
\BIBCODE                            = "2016PASP..128d5003T"
\TELESCOPE                          = "2.5m Sloan Foundation Telescope"
\INSTRUMENT                         = "MARVELS"
\WAVELENGTH_CALIBRATION_TECHNIQUE   = "Tungsten Iodine Lamp"
\OBSERVATORY_SITE                   = "Apache Point Observatory, New Mexico"
\COLUMN_FCJD                        = "Flux Centered Julian Date of observation"
\COLUMN_RADIAL_VELOCITY             = "Radial velocity relative to barycenter"
\COLUMN_RADIAL_VELOCITY_UNCERTAINTY = "Uncertainty in RADIAL_VELOCITY"
|           FCJD |   Radial_Velocity |   Radial_Velocity_Uncertainty |
|         double |            double |                        double |
|           days |               m/s |                           m/s |
  2455575.847975              -4.296                          98.484
  2455579.871493              78.664                         106.368
  2455585.873275              -3.907                          93.084
  2455586.891817             139.859                         139.979
  2455604.820035             -61.559                          98.629
  2455605.757975             -92.878                          81.153
  2455606.768333              79.526                         134.767
  2455614.824780            -182.504                          95.411
  2455615.824757              60.915                         144.177
  2455640.728542              41.283                         102.178
  2455641.727500              19.639                          92.436
  2455666.618912              32.824                          84.859
  2455667.621447              -9.078                         102.532
  2455668.618113              66.821                         100.913
  2455873.002662             -59.799                         162.713
  2455876.998981             -93.950                         137.996
  2455904.915972            -107.063                         138.360
  2455905.901389              -3.332                         153.518
  2455905.948565              55.068                         130.451
  2455928.820602             -95.222                          99.485
  2455932.863750            -108.015                         114.940
  2455938.821204             199.094                         143.730
  2455958.770197              56.707                         118.211
  2455959.769525             -75.417                            -NaN
  2455965.811100              28.543                         100.099
  2455969.737338             -79.002                         206.699
  2456022.606678             117.079                          81.105
