\STAR_ID                            = "2MASS J07335909+2051493"
\DATA_CATEGORY                      = "Planet Radial Velocity Curve"
\NUMBER_OF_POINTS                   = "27"
\TIME_REFERENCE_FRAME               = "FCJD"
\MINIMUM_DATE                       = "2455575.847975"
\DATE_UNITS                         = "days"
\MAXIMUM_DATE                       = "2456022.606678"
\MINIMUM_VALUE                      = "-245.760"
\VALUE_UNITS                        = "m/s"
\MAXIMUM_VALUE                      = "467.643"
\REFERENCE                          = "Thomas et al. 2016 (PASP, 128, 5003)"
\BIBCODE                            = "2016PASP..128d5003T"
\TELESCOPE                          = "2.5m Sloan Foundation Telescope"
\INSTRUMENT                         = "MARVELS"
\WAVELENGTH_CALIBRATION_TECHNIQUE   = "Tungsten Iodine Lamp"
\OBSERVATORY_SITE                   = "Apache Point Observatory, New Mexico"
\COLUMN_FCJD                        = "Flux Centered Julian Date of observation"
\COLUMN_RADIAL_VELOCITY             = "Radial velocity relative to barycenter"
\COLUMN_RADIAL_VELOCITY_UNCERTAINTY = "Uncertainty in RADIAL_VELOCITY"
|           FCJD |   Radial_Velocity |   Radial_Velocity_Uncertainty |
|         double |            double |                        double |
|           days |               m/s |                           m/s |
  2455575.847975              74.039                         127.709
  2455579.871493             -21.263                         125.664
  2455585.873275              63.074                         114.392
  2455586.891817              59.075                         125.346
  2455604.820035             -63.154                         111.260
  2455605.757975               3.235                          85.599
  2455606.768333            -160.153                          97.924
  2455614.824780             -79.730                          83.630
  2455615.824757             -86.158                          88.808
  2455640.728542             145.093                         114.551
  2455641.727500              -0.087                         147.108
  2455666.618912              88.036                         142.414
  2455667.621447             120.130                         135.368
  2455668.618113             270.107                         135.267
  2455873.002662             -66.637                          77.518
  2455876.998981             467.643                         114.863
  2455904.915972            -190.837                          94.763
  2455905.901389             -25.884                          89.856
  2455905.948565            -245.760                         103.724
  2455928.820602            -159.246                            -NaN
  2455932.863750            -193.167                          76.696
  2455938.821204             -35.381                         137.744
  2455958.770197               8.785                         122.113
  2455959.769525              39.459                          90.938
  2455965.811100             -23.141                          92.074
  2455969.737338             134.940                          91.164
  2456022.606678            -123.021                         160.803
