\STAR_ID                            = "2MASS J07401459+2059086"
\DATA_CATEGORY                      = "Planet Radial Velocity Curve"
\NUMBER_OF_POINTS                   = "27"
\TIME_REFERENCE_FRAME               = "FCJD"
\MINIMUM_DATE                       = "2455575.847975"
\DATE_UNITS                         = "days"
\MAXIMUM_DATE                       = "2456022.606678"
\MINIMUM_VALUE                      = "-13854.961"
\VALUE_UNITS                        = "m/s"
\MAXIMUM_VALUE                      = "11414.635"
\REFERENCE                          = "Thomas et al. 2016 (PASP, 128, 5003)"
\BIBCODE                            = "2016PASP..128d5003T"
\TELESCOPE                          = "2.5m Sloan Foundation Telescope"
\INSTRUMENT                         = "MARVELS"
\WAVELENGTH_CALIBRATION_TECHNIQUE   = "Tungsten Iodine Lamp"
\OBSERVATORY_SITE                   = "Apache Point Observatory, New Mexico"
\COLUMN_FCJD                        = "Flux Centered Julian Date of observation"
\COLUMN_RADIAL_VELOCITY             = "Radial velocity relative to barycenter"
\COLUMN_RADIAL_VELOCITY_UNCERTAINTY = "Uncertainty in RADIAL_VELOCITY"
|           FCJD |   Radial_Velocity |   Radial_Velocity_Uncertainty |
|         double |            double |                        double |
|           days |               m/s |                           m/s |
  2455575.847975            7941.499                            -NaN
  2455579.871493            8141.012                         102.287
  2455585.873275            8140.357                          97.234
  2455586.891817            7982.729                         156.565
  2455604.820035            8784.922                         205.245
  2455605.757975            8715.668                         129.262
  2455606.768333            8663.242                         172.349
  2455614.824780            9299.704                         117.868
  2455615.824757            8919.815                         143.603
  2455640.728542           10058.998                         109.909
  2455641.727500           10041.251                         136.902
  2455666.618912           11414.635                         158.951
  2455667.621447           11353.400                         147.536
  2455668.618113           11271.102                         147.116
  2455873.002662            -769.611                         155.876
  2455876.998981           -1832.971                         323.782
  2455904.915972          -13284.183                         242.524
  2455905.901389          -13379.945                         224.738
  2455905.948565          -13767.714                         249.002
  2455928.820602          -13854.961                         227.141
  2455932.863750          -13407.633                         224.283
  2455938.821204          -12377.790                         222.865
  2455958.770197          -11083.751                         288.886
  2455959.769525          -11011.370                         244.338
  2455965.811100          -10187.398                         252.126
  2455969.737338           -9795.833                         238.541
  2456022.606678           -5975.188                         241.978
