\STAR_ID                            = "2MASS J00221444+6201348"
\DATA_CATEGORY                      = "Planet Radial Velocity Curve"
\NUMBER_OF_POINTS                   = "34"
\TIME_REFERENCE_FRAME               = "FCJD"
\MINIMUM_DATE                       = "2455846.596250"
\DATE_UNITS                         = "days"
\MAXIMUM_DATE                       = "2455848.622222"
\MINIMUM_VALUE                      = "-321.325"
\VALUE_UNITS                        = "m/s"
\MAXIMUM_VALUE                      = "394.583"
\REFERENCE                          = "Thomas et al. 2016 (PASP, 128, 5003)"
\BIBCODE                            = "2016PASP..128d5003T"
\TELESCOPE                          = "2.5m Sloan Foundation Telescope"
\INSTRUMENT                         = "MARVELS"
\WAVELENGTH_CALIBRATION_TECHNIQUE   = "Tungsten Iodine Lamp"
\OBSERVATORY_SITE                   = "Apache Point Observatory, New Mexico"
\COLUMN_FCJD                        = "Flux Centered Julian Date of observation"
\COLUMN_RADIAL_VELOCITY             = "Radial velocity relative to barycenter"
\COLUMN_RADIAL_VELOCITY_UNCERTAINTY = "Uncertainty in RADIAL_VELOCITY"
|           FCJD |   Radial_Velocity |   Radial_Velocity_Uncertainty |
|         double |            double |                        double |
|           days |               m/s |                           m/s |
  2455846.596250            -213.372                         133.357
  2455846.602407              23.984                         126.148
  2455846.606019             -16.088                         174.204
  2455846.609676            -147.537                         187.167
  2455846.629120            -216.112                         139.742
  2455846.632824             -83.840                         176.759
  2455846.636470             -18.639                         128.831
  2455846.639838             -25.341                         157.474
  2455846.643206            -196.872                         171.465
  2455846.652280             130.847                            -NaN
  2455846.656285             185.663                         169.499
  2455846.661331             -21.583                         124.987
  2455846.665394             227.349                         149.649
  2455846.669931             -44.712                         168.917
  2455846.674016             114.930                         135.920
  2455846.678241            -132.730                         168.084
  2455846.684514              56.337                         191.327
  2455846.688484             264.685                         194.438
  2455846.692512            -173.404                         138.546
  2455848.570347            -218.523                         109.156
  2455848.575012             394.583                         166.675
  2455848.579039             141.928                         158.997
  2455848.582650             226.734                         158.721
  2455848.586308            -321.325                         147.776
  2455848.590544               0.083                         134.018
  2455848.593924               1.953                         181.296
  2455848.597604             317.983                         167.613
  2455848.600984            -135.408                         146.316
  2455848.604468               5.730                         157.710
  2455848.608391              64.096                         167.789
  2455848.611620              79.897                         151.405
  2455848.615208              45.967                         153.256
  2455848.618715            -188.857                         220.256
  2455848.622222            -128.408                         144.820
