\STAR_ID                            = "2MASS J07325157+2215521"
\DATA_CATEGORY                      = "Planet Radial Velocity Curve"
\NUMBER_OF_POINTS                   = "27"
\TIME_REFERENCE_FRAME               = "FCJD"
\MINIMUM_DATE                       = "2455575.847975"
\DATE_UNITS                         = "days"
\MAXIMUM_DATE                       = "2456022.606678"
\MINIMUM_VALUE                      = "-3443.143"
\VALUE_UNITS                        = "m/s"
\MAXIMUM_VALUE                      = "3037.776"
\REFERENCE                          = "Thomas et al. 2016 (PASP, 128, 5003)"
\BIBCODE                            = "2016PASP..128d5003T"
\TELESCOPE                          = "2.5m Sloan Foundation Telescope"
\INSTRUMENT                         = "MARVELS"
\WAVELENGTH_CALIBRATION_TECHNIQUE   = "Tungsten Iodine Lamp"
\OBSERVATORY_SITE                   = "Apache Point Observatory, New Mexico"
\COLUMN_FCJD                        = "Flux Centered Julian Date of observation"
\COLUMN_RADIAL_VELOCITY             = "Radial velocity relative to barycenter"
\COLUMN_RADIAL_VELOCITY_UNCERTAINTY = "Uncertainty in RADIAL_VELOCITY"
|           FCJD |   Radial_Velocity |   Radial_Velocity_Uncertainty |
|         double |            double |                        double |
|           days |               m/s |                           m/s |
  2455575.847975           -3443.143                         128.002
  2455579.871493           -3150.643                         183.489
  2455585.873275           -2877.384                         123.813
  2455586.891817           -2978.350                         154.468
  2455604.820035           -2352.467                         108.737
  2455605.757975           -2337.630                         151.200
  2455606.768333           -2431.902                         107.632
  2455614.824780           -2259.367                         122.436
  2455615.824757           -2293.375                         135.778
  2455640.728542           -1354.434                         151.384
  2455641.727500           -1260.261                         160.977
  2455666.618912            -396.420                         134.830
  2455667.621447            -540.168                         128.126
  2455668.618113            -382.257                         150.481
  2455873.002662            1611.760                         136.221
  2455876.998981             886.714                         230.029
  2455904.915972            2116.741                         143.277
  2455905.901389            2090.803                         145.466
  2455905.948565            1863.371                         167.923
  2455928.820602            1976.289                         101.231
  2455932.863750            2182.102                         136.296
  2455938.821204            2347.232                         213.872
  2455958.770197            2444.305                          95.391
  2455959.769525            2492.949                            -NaN
  2455965.811100            2550.100                         123.164
  2455969.737338            2457.658                         255.792
  2456022.606678            3037.776                         121.270
