\STAR_ID                            = "2MASS J00343830+6237197"
\DATA_CATEGORY                      = "Planet Radial Velocity Curve"
\NUMBER_OF_POINTS                   = "34"
\TIME_REFERENCE_FRAME               = "FCJD"
\MINIMUM_DATE                       = "2455846.596250"
\DATE_UNITS                         = "days"
\MAXIMUM_DATE                       = "2455848.622222"
\MINIMUM_VALUE                      = "-258.065"
\VALUE_UNITS                        = "m/s"
\MAXIMUM_VALUE                      = "194.126"
\REFERENCE                          = "Thomas et al. 2016 (PASP, 128, 5003)"
\BIBCODE                            = "2016PASP..128d5003T"
\TELESCOPE                          = "2.5m Sloan Foundation Telescope"
\INSTRUMENT                         = "MARVELS"
\WAVELENGTH_CALIBRATION_TECHNIQUE   = "Tungsten Iodine Lamp"
\OBSERVATORY_SITE                   = "Apache Point Observatory, New Mexico"
\COLUMN_FCJD                        = "Flux Centered Julian Date of observation"
\COLUMN_RADIAL_VELOCITY             = "Radial velocity relative to barycenter"
\COLUMN_RADIAL_VELOCITY_UNCERTAINTY = "Uncertainty in RADIAL_VELOCITY"
|           FCJD |   Radial_Velocity |   Radial_Velocity_Uncertainty |
|         double |            double |                        double |
|           days |               m/s |                           m/s |
  2455846.596250            -110.727                          76.938
  2455846.602407             114.048                         101.499
  2455846.606019            -126.917                          96.459
  2455846.609676              -4.131                          82.446
  2455846.629120             -34.788                          80.536
  2455846.632824              -1.502                         106.533
  2455846.636470              -0.994                          95.070
  2455846.639838             103.588                          98.611
  2455846.643206            -131.265                         105.228
  2455846.652280               9.397                            -NaN
  2455846.656285              69.844                         117.340
  2455846.661331             194.126                         108.365
  2455846.665394               1.308                          79.317
  2455846.669931             -40.437                          99.087
  2455846.674016              92.132                          63.876
  2455846.678241              14.253                          72.098
  2455846.684514              -4.395                          81.543
  2455846.688484             -44.569                          79.306
  2455846.692512             -92.052                          88.489
  2455848.570347              23.264                          72.427
  2455848.575012             176.103                         128.665
  2455848.579039             167.841                         122.193
  2455848.582650              23.334                          98.399
  2455848.586308              13.506                          66.738
  2455848.590544             104.189                          82.095
  2455848.593924             -86.643                         134.883
  2455848.597604            -258.065                         168.363
  2455848.600984             -62.271                          83.037
  2455848.604468             -27.702                          90.885
  2455848.608391             -90.091                          92.006
  2455848.611620               1.795                         108.373
  2455848.615208              18.038                         168.489
  2455848.618715             -35.192                          91.420
  2455848.622222              24.974                          84.477
