\STAR_ID                            = "2MASS J13491708+2715062"
\DATA_CATEGORY                      = "Planet Radial Velocity Curve"
\NUMBER_OF_POINTS                   = "42"
\TIME_REFERENCE_FRAME               = "FCJD"
\MINIMUM_DATE                       = "2455610.028079"
\DATE_UNITS                         = "days"
\MAXIMUM_DATE                       = "2456078.634282"
\MINIMUM_VALUE                      = "-152.728"
\VALUE_UNITS                        = "m/s"
\MAXIMUM_VALUE                      = "220.891"
\REFERENCE                          = "Thomas et al. 2016 (PASP, 128, 5003)"
\BIBCODE                            = "2016PASP..128d5003T"
\TELESCOPE                          = "2.5m Sloan Foundation Telescope"
\INSTRUMENT                         = "MARVELS"
\WAVELENGTH_CALIBRATION_TECHNIQUE   = "Tungsten Iodine Lamp"
\OBSERVATORY_SITE                   = "Apache Point Observatory, New Mexico"
\COLUMN_FCJD                        = "Flux Centered Julian Date of observation"
\COLUMN_RADIAL_VELOCITY             = "Radial velocity relative to barycenter"
\COLUMN_RADIAL_VELOCITY_UNCERTAINTY = "Uncertainty in RADIAL_VELOCITY"
|           FCJD |   Radial_Velocity |   Radial_Velocity_Uncertainty |
|         double |            double |                        double |
|           days |               m/s |                           m/s |
  2455610.028079            -152.203                          63.510
  2455611.912025             -70.085                          65.970
  2455613.935000            -108.203                          57.630
  2455614.908067              62.553                          84.740
  2455615.907662            -102.393                          64.240
  2455634.824826             -47.331                          49.211
  2455634.865741             -26.473                          64.446
  2455636.861586              47.073                          57.181
  2455636.902870              28.964                          60.648
  2455637.921146             -14.193                          64.424
  2455638.894838              35.120                          61.791
  2455641.814213             114.841                          61.832
  2455641.854838             141.231                          62.537
  2455643.839514             -11.469                          64.043
  2455644.869352               3.571                          53.231
  2455645.868808              17.602                          67.783
  2455670.766111             -82.711                          57.842
  2455672.766528            -107.271                          69.167
  2455673.775741             -36.624                          59.362
  2455674.805116             -26.352                          68.763
  2455694.725926               0.763                          58.490
  2455695.721435             -39.657                          74.700
  2455696.720162              43.407                          60.966
  2455697.737755              47.857                          67.514
  2455704.784201              24.185                          44.275
  2455722.652222              10.381                            -NaN
  2455722.688125             -12.231                          40.293
  2455723.652512             -17.407                          32.398
  2455759.654132            -152.728                          53.620
  2455937.014363             -28.546                          46.992
  2455937.971574               4.048                          55.182
  2455938.958866               5.873                          68.149
  2455940.010833             106.993                          98.263
  2455940.984664             220.891                          60.584
  2455959.883970              27.626                          45.006
  2456050.729583             -49.230                          70.440
  2456051.685463            -104.797                          62.990
  2456052.690961              -2.983                          58.141
  2456053.690486              13.745                          66.497
  2456054.690845              54.597                          69.710
  2456077.700822              67.025                          47.312
  2456078.634282             114.540                          48.447
