\STAR_ID                            = "2MASS J13503464+2821110"
\DATA_CATEGORY                      = "Planet Radial Velocity Curve"
\NUMBER_OF_POINTS                   = "42"
\TIME_REFERENCE_FRAME               = "FCJD"
\MINIMUM_DATE                       = "2455610.028079"
\DATE_UNITS                         = "days"
\MAXIMUM_DATE                       = "2456078.634282"
\MINIMUM_VALUE                      = "-143.044"
\VALUE_UNITS                        = "m/s"
\MAXIMUM_VALUE                      = "80.237"
\REFERENCE                          = "Thomas et al. 2016 (PASP, 128, 5003)"
\BIBCODE                            = "2016PASP..128d5003T"
\TELESCOPE                          = "2.5m Sloan Foundation Telescope"
\INSTRUMENT                         = "MARVELS"
\WAVELENGTH_CALIBRATION_TECHNIQUE   = "Tungsten Iodine Lamp"
\OBSERVATORY_SITE                   = "Apache Point Observatory, New Mexico"
\COLUMN_FCJD                        = "Flux Centered Julian Date of observation"
\COLUMN_RADIAL_VELOCITY             = "Radial velocity relative to barycenter"
\COLUMN_RADIAL_VELOCITY_UNCERTAINTY = "Uncertainty in RADIAL_VELOCITY"
|           FCJD |   Radial_Velocity |   Radial_Velocity_Uncertainty |
|         double |            double |                        double |
|           days |               m/s |                           m/s |
  2455610.028079              14.633                          64.140
  2455611.912025               1.108                          71.318
  2455613.935000              59.603                          61.282
  2455614.908067              -7.026                          55.747
  2455615.907662              -0.061                          72.547
  2455634.824826             -86.098                          79.113
  2455634.865741              64.617                          74.381
  2455636.861586             -12.279                          75.508
  2455636.902870              63.326                          61.652
  2455637.921146              47.839                          65.855
  2455638.894838              10.653                          65.200
  2455641.814213                -NaN                            -NaN
  2455641.854838                -NaN                            -NaN
  2455643.839514             -21.813                          77.084
  2455644.869352              64.590                          83.433
  2455645.868808              80.237                          77.391
  2455670.766111             -41.782                          67.383
  2455672.766528              23.563                          62.408
  2455673.775741             -62.846                          54.744
  2455674.805116              55.558                          56.142
  2455694.725926              34.363                          76.494
  2455695.721435              52.347                          98.611
  2455696.720162              39.653                          86.666
  2455697.737755             -23.936                          65.895
  2455704.784201              53.319                          78.873
  2455722.652222               8.740                          45.665
  2455722.688125             -28.953                            -NaN
  2455723.652512               4.134                          63.286
  2455759.654132             -51.670                          69.073
  2455937.014363              25.234                          72.345
  2455937.971574               0.142                          76.732
  2455938.958866              -0.280                          72.074
  2455940.010833              -5.752                          86.058
  2455940.984664              -5.446                          63.707
  2455959.883970             -85.106                          95.609
  2456050.729583            -143.044                         105.562
  2456051.685463             -38.614                          79.410
  2456052.690961              44.784                          76.947
  2456053.690486            -109.074                          52.148
  2456054.690845              50.126                          74.958
  2456077.700822             -30.206                          89.329
  2456078.634282             -44.582                          78.837
