\STAR_ID                            = "2MASS J14015174+2804099"
\DATA_CATEGORY                      = "Planet Radial Velocity Curve"
\NUMBER_OF_POINTS                   = "35"
\TIME_REFERENCE_FRAME               = "FCJD"
\MINIMUM_DATE                       = "2455613.974352"
\DATE_UNITS                         = "days"
\MAXIMUM_DATE                       = "2456048.807477"
\MINIMUM_VALUE                      = "-1586.946"
\VALUE_UNITS                        = "m/s"
\MAXIMUM_VALUE                      = "660.890"
\REFERENCE                          = "Thomas et al. 2016 (PASP, 128, 5003)"
\BIBCODE                            = "2016PASP..128d5003T"
\TELESCOPE                          = "2.5m Sloan Foundation Telescope"
\INSTRUMENT                         = "MARVELS"
\WAVELENGTH_CALIBRATION_TECHNIQUE   = "Tungsten Iodine Lamp"
\OBSERVATORY_SITE                   = "Apache Point Observatory, New Mexico"
\COLUMN_FCJD                        = "Flux Centered Julian Date of observation"
\COLUMN_RADIAL_VELOCITY             = "Radial velocity relative to barycenter"
\COLUMN_RADIAL_VELOCITY_UNCERTAINTY = "Uncertainty in RADIAL_VELOCITY"
|           FCJD |   Radial_Velocity |   Radial_Velocity_Uncertainty |
|         double |            double |                        double |
|           days |               m/s |                           m/s |
  2455613.974352             334.493                         141.076
  2455614.949688             147.527                         145.050
  2455615.949375             375.507                         131.497
  2455635.872095             362.759                         194.846
  2455636.946285             372.967                         116.941
  2455636.987257             241.713                         188.225
  2455637.961215             254.224                         138.779
  2455638.936354             410.637                         169.070
  2455638.976609              67.047                         152.474
  2455639.964884             560.713                         175.357
  2455640.941157             234.730                         153.605
  2455641.940532             660.890                         267.200
  2455643.927801             658.120                         156.612
  2455644.959792             182.692                         132.482
  2455645.953368             161.590                         157.415
  2455667.878391             315.680                            -NaN
  2455668.890775             126.577                         134.473
  2455669.907975             284.386                          88.884
  2455672.893137             424.608                         111.155
  2455673.911736             121.841                         134.713
  2455674.917778                -NaN                            -NaN
  2455693.760787             170.280                         156.945
  2455694.768414             319.645                         115.669
  2455695.763796             195.088                         187.834
  2455696.762361             -93.659                         183.125
  2455697.780463            -297.435                         225.338
  2455724.696829            -578.009                         155.876
  2455726.693183           -1151.123                         258.492
  2455727.684653            -316.052                         161.966
  2455935.001134            -454.633                         147.808
  2455939.012581            -368.143                         119.878
  2455968.932731            -462.557                         111.799
  2456024.850671            -776.802                         152.901
  2456029.829664            -898.357                         113.159
  2456048.807477           -1586.946                         141.058
