\STAR_ID                            = "2MASS J13502070+2744481"
\DATA_CATEGORY                      = "Planet Radial Velocity Curve"
\NUMBER_OF_POINTS                   = "42"
\TIME_REFERENCE_FRAME               = "FCJD"
\MINIMUM_DATE                       = "2455610.028079"
\DATE_UNITS                         = "days"
\MAXIMUM_DATE                       = "2456078.634282"
\MINIMUM_VALUE                      = "-283.577"
\VALUE_UNITS                        = "m/s"
\MAXIMUM_VALUE                      = "384.337"
\REFERENCE                          = "Thomas et al. 2016 (PASP, 128, 5003)"
\BIBCODE                            = "2016PASP..128d5003T"
\TELESCOPE                          = "2.5m Sloan Foundation Telescope"
\INSTRUMENT                         = "MARVELS"
\WAVELENGTH_CALIBRATION_TECHNIQUE   = "Tungsten Iodine Lamp"
\OBSERVATORY_SITE                   = "Apache Point Observatory, New Mexico"
\COLUMN_FCJD                        = "Flux Centered Julian Date of observation"
\COLUMN_RADIAL_VELOCITY             = "Radial velocity relative to barycenter"
\COLUMN_RADIAL_VELOCITY_UNCERTAINTY = "Uncertainty in RADIAL_VELOCITY"
|           FCJD |   Radial_Velocity |   Radial_Velocity_Uncertainty |
|         double |            double |                        double |
|           days |               m/s |                           m/s |
  2455610.028079             -63.727                         120.271
  2455611.912025             159.618                         118.484
  2455613.935000              49.410                         144.150
  2455614.908067            -143.414                          69.592
  2455615.907662            -186.701                          97.362
  2455634.824826             -26.257                         112.636
  2455634.865741             -94.582                         109.951
  2455636.861586              25.316                         107.434
  2455636.902870             -98.297                          85.481
  2455637.921146             -28.375                          95.908
  2455638.894838             101.450                         123.176
  2455641.814213             -37.414                          91.032
  2455641.854838             -91.939                          79.332
  2455643.839514              67.494                          85.964
  2455644.869352            -142.505                          80.815
  2455645.868808              18.124                          96.981
  2455670.766111              42.472                         107.850
  2455672.766528            -148.098                         104.787
  2455673.775741             -13.055                         109.659
  2455674.805116            -283.577                         128.774
  2455694.725926            -180.329                          98.349
  2455695.721435             275.724                         178.784
  2455696.720162              96.862                         131.319
  2455697.737755             124.661                         119.733
  2455704.784201             -26.474                         109.685
  2455722.652222            -194.477                            -NaN
  2455722.688125            -152.666                          86.859
  2455723.652512               5.627                          73.557
  2455759.654132            -140.344                         103.668
  2455937.014363             199.161                         112.631
  2455937.971574              -4.105                          79.789
  2455938.958866              -9.933                         114.589
  2455940.010833             -26.782                         105.546
  2455940.984664             150.881                         107.621
  2455959.883970              80.406                          98.710
  2456050.729583             384.337                         155.304
  2456051.685463              84.350                          69.688
  2456052.690961            -167.843                         111.195
  2456053.690486              32.314                          98.992
  2456054.690845             338.621                         105.730
  2456077.700822             -86.826                          98.476
  2456078.634282             110.890                          93.557
