\STAR_ID                            = "2MASS J13444340+2746353"
\DATA_CATEGORY                      = "Planet Radial Velocity Curve"
\NUMBER_OF_POINTS                   = "42"
\TIME_REFERENCE_FRAME               = "FCJD"
\MINIMUM_DATE                       = "2455610.028079"
\DATE_UNITS                         = "days"
\MAXIMUM_DATE                       = "2456078.634282"
\MINIMUM_VALUE                      = "-624.147"
\VALUE_UNITS                        = "m/s"
\MAXIMUM_VALUE                      = "467.838"
\REFERENCE                          = "Thomas et al. 2016 (PASP, 128, 5003)"
\BIBCODE                            = "2016PASP..128d5003T"
\TELESCOPE                          = "2.5m Sloan Foundation Telescope"
\INSTRUMENT                         = "MARVELS"
\WAVELENGTH_CALIBRATION_TECHNIQUE   = "Tungsten Iodine Lamp"
\OBSERVATORY_SITE                   = "Apache Point Observatory, New Mexico"
\COLUMN_FCJD                        = "Flux Centered Julian Date of observation"
\COLUMN_RADIAL_VELOCITY             = "Radial velocity relative to barycenter"
\COLUMN_RADIAL_VELOCITY_UNCERTAINTY = "Uncertainty in RADIAL_VELOCITY"
|           FCJD |   Radial_Velocity |   Radial_Velocity_Uncertainty |
|         double |            double |                        double |
|           days |               m/s |                           m/s |
  2455610.028079             129.582                         126.757
  2455611.912025             467.838                         100.746
  2455613.935000             220.541                         145.090
  2455614.908067             117.064                          91.859
  2455615.907662              56.386                         145.314
  2455634.824826              81.058                            -NaN
  2455634.865741              91.715                          84.528
  2455636.861586             -67.626                          69.553
  2455636.902870               8.895                          96.960
  2455637.921146            -128.160                          95.575
  2455638.894838             121.073                         114.002
  2455641.814213             -50.316                         124.424
  2455641.854838             -64.155                         115.966
  2455643.839514              87.726                         116.156
  2455644.869352             202.479                          91.199
  2455645.868808             -35.607                         117.753
  2455670.766111             -88.739                         164.062
  2455672.766528            -123.047                          99.608
  2455673.775741             133.109                          90.880
  2455674.805116             -18.262                         161.723
  2455694.725926             -77.530                         105.983
  2455695.721435            -156.795                         158.882
  2455696.720162            -300.622                         134.134
  2455697.737755            -448.039                         132.617
  2455704.784201             245.165                         150.755
  2455722.652222             116.148                         122.679
  2455722.688125              81.433                         137.575
  2455723.652512              49.273                         141.438
  2455759.654132              55.257                         162.654
  2455937.014363             -38.959                         120.437
  2455937.971574             125.267                         116.862
  2455938.958866             174.910                         109.787
  2455940.010833              25.499                         112.170
  2455940.984664             205.619                         112.955
  2455959.883970             -39.148                         179.996
  2456050.729583            -624.147                         132.350
  2456051.685463               3.843                         125.362
  2456052.690961             -63.038                         107.226
  2456053.690486            -132.538                         185.219
  2456054.690845            -127.678                         114.801
  2456077.700822              -8.160                         158.350
  2456078.634282            -207.314                         124.762
