\STAR_ID                            = "2MASS J13395343+2820548"
\DATA_CATEGORY                      = "Planet Radial Velocity Curve"
\NUMBER_OF_POINTS                   = "42"
\TIME_REFERENCE_FRAME               = "FCJD"
\MINIMUM_DATE                       = "2455610.028079"
\DATE_UNITS                         = "days"
\MAXIMUM_DATE                       = "2456078.634282"
\MINIMUM_VALUE                      = "-102.277"
\VALUE_UNITS                        = "m/s"
\MAXIMUM_VALUE                      = "137.785"
\REFERENCE                          = "Thomas et al. 2016 (PASP, 128, 5003)"
\BIBCODE                            = "2016PASP..128d5003T"
\TELESCOPE                          = "2.5m Sloan Foundation Telescope"
\INSTRUMENT                         = "MARVELS"
\WAVELENGTH_CALIBRATION_TECHNIQUE   = "Tungsten Iodine Lamp"
\OBSERVATORY_SITE                   = "Apache Point Observatory, New Mexico"
\COLUMN_FCJD                        = "Flux Centered Julian Date of observation"
\COLUMN_RADIAL_VELOCITY             = "Radial velocity relative to barycenter"
\COLUMN_RADIAL_VELOCITY_UNCERTAINTY = "Uncertainty in RADIAL_VELOCITY"
|           FCJD |   Radial_Velocity |   Radial_Velocity_Uncertainty |
|         double |            double |                        double |
|           days |               m/s |                           m/s |
  2455610.028079            -102.277                          41.302
  2455611.912025             -51.430                          42.477
  2455613.935000             -48.752                          49.377
  2455614.908067             -23.717                          40.462
  2455615.907662             -52.233                          35.798
  2455634.824826             -84.688                          32.495
  2455634.865741             -90.964                          29.323
  2455636.861586              -4.456                          24.543
  2455636.902870             -15.960                          22.142
  2455637.921146             -45.296                          31.029
  2455638.894838             -50.893                          28.403
  2455641.814213              29.160                          18.873
  2455641.854838              58.641                          26.741
  2455643.839514               1.379                          26.974
  2455644.869352               6.632                            -NaN
  2455645.868808              39.406                          28.544
  2455670.766111               2.971                          31.909
  2455672.766528             -20.579                          27.629
  2455673.775741              43.540                          32.307
  2455674.805116             -43.269                          31.911
  2455694.725926              48.996                          19.361
  2455695.721435               8.559                          30.179
  2455696.720162              81.508                          25.879
  2455697.737755             100.726                          23.392
  2455704.784201              83.175                          27.316
  2455722.652222              25.731                          25.082
  2455722.688125              56.094                          24.958
  2455723.652512             -34.886                          23.154
  2455759.654132              39.709                          29.617
  2455937.014363              16.234                          33.525
  2455937.971574             -17.049                          27.128
  2455938.958866             -68.529                          32.060
  2455940.010833              23.983                          26.720
  2455940.984664             -35.593                          36.957
  2455959.883970              26.618                          28.075
  2456050.729583             137.785                          24.892
  2456051.685463              21.546                          31.376
  2456052.690961              24.240                          23.065
  2456053.690486              30.378                          24.157
  2456054.690845              -9.008                          26.949
  2456077.700822             -63.692                          26.830
  2456078.634282             -43.736                          29.294
