\STAR_ID                            = "2MASS J13500914+2805011"
\DATA_CATEGORY                      = "Planet Radial Velocity Curve"
\NUMBER_OF_POINTS                   = "42"
\TIME_REFERENCE_FRAME               = "FCJD"
\MINIMUM_DATE                       = "2455610.028079"
\DATE_UNITS                         = "days"
\MAXIMUM_DATE                       = "2456078.634282"
\MINIMUM_VALUE                      = "-6218.172"
\VALUE_UNITS                        = "m/s"
\MAXIMUM_VALUE                      = "21584.850"
\REFERENCE                          = "Thomas et al. 2016 (PASP, 128, 5003)"
\BIBCODE                            = "2016PASP..128d5003T"
\TELESCOPE                          = "2.5m Sloan Foundation Telescope"
\INSTRUMENT                         = "MARVELS"
\WAVELENGTH_CALIBRATION_TECHNIQUE   = "Tungsten Iodine Lamp"
\OBSERVATORY_SITE                   = "Apache Point Observatory, New Mexico"
\COLUMN_FCJD                        = "Flux Centered Julian Date of observation"
\COLUMN_RADIAL_VELOCITY             = "Radial velocity relative to barycenter"
\COLUMN_RADIAL_VELOCITY_UNCERTAINTY = "Uncertainty in RADIAL_VELOCITY"
|           FCJD |   Radial_Velocity |   Radial_Velocity_Uncertainty |
|         double |            double |                        double |
|           days |               m/s |                           m/s |
  2455610.028079           -4984.901                          84.604
  2455611.912025           -4880.070                          81.020
  2455613.935000           -5512.579                         106.182
  2455614.908067           -5671.933                          83.822
  2455615.907662           -5816.933                          75.938
  2455634.824826           -2330.195                          66.264
  2455634.865741           -2158.825                          72.353
  2455636.861586            1445.038                          73.266
  2455636.902870            1485.446                          76.549
  2455637.921146            4523.754                          81.837
  2455638.894838            8463.230                          71.003
  2455641.814213           21343.836                          74.989
  2455641.854838           21584.850                          70.712
  2455643.839514           18838.518                          55.936
  2455644.869352           16009.229                          54.690
  2455645.868808           13677.919                          72.727
  2455670.766111           -3941.199                          92.327
  2455672.766528           -4530.438                          69.220
  2455673.775741           -4869.901                          68.377
  2455674.805116           -5000.096                          86.434
  2455694.725926           -5553.310                          76.681
  2455695.721435           -4960.992                          88.617
  2455696.720162           -4811.902                          79.545
  2455697.737755           -4159.701                         106.968
  2455704.784201           12182.435                          90.185
  2455722.652222             514.008                          66.250
  2455722.688125             421.140                          57.142
  2455723.652512             -80.829                          54.209
  2455759.654132           -5716.441                          77.190
  2455937.014363           -4752.521                          88.278
  2455937.971574           -5058.761                          77.435
  2455938.958866           -5359.125                          82.852
  2455940.010833           -5135.122                          81.375
  2455940.984664           -5355.412                          71.552
  2455959.883970           -2569.702                         100.776
  2456050.729583             -22.039                          78.313
  2456051.685463            -701.810                            -NaN
  2456052.690961           -1153.365                          50.904
  2456053.690486           -1546.488                          61.225
  2456054.690845           -1650.381                          67.897
  2456077.700822           -5986.262                          52.973
  2456078.634282           -6218.172                          55.230
