\STAR_ID                            = "2MASS J13451270+2716441"
\DATA_CATEGORY                      = "Planet Radial Velocity Curve"
\NUMBER_OF_POINTS                   = "42"
\TIME_REFERENCE_FRAME               = "FCJD"
\MINIMUM_DATE                       = "2455610.028079"
\DATE_UNITS                         = "days"
\MAXIMUM_DATE                       = "2456078.634282"
\MINIMUM_VALUE                      = "-10000.829"
\VALUE_UNITS                        = "m/s"
\MAXIMUM_VALUE                      = "11057.166"
\REFERENCE                          = "Thomas et al. 2016 (PASP, 128, 5003)"
\BIBCODE                            = "2016PASP..128d5003T"
\TELESCOPE                          = "2.5m Sloan Foundation Telescope"
\INSTRUMENT                         = "MARVELS"
\WAVELENGTH_CALIBRATION_TECHNIQUE   = "Tungsten Iodine Lamp"
\OBSERVATORY_SITE                   = "Apache Point Observatory, New Mexico"
\COLUMN_FCJD                        = "Flux Centered Julian Date of observation"
\COLUMN_RADIAL_VELOCITY             = "Radial velocity relative to barycenter"
\COLUMN_RADIAL_VELOCITY_UNCERTAINTY = "Uncertainty in RADIAL_VELOCITY"
|           FCJD |   Radial_Velocity |   Radial_Velocity_Uncertainty |
|         double |            double |                        double |
|           days |               m/s |                           m/s |
  2455610.028079            7070.201                          70.998
  2455611.912025            7208.274                          87.452
  2455613.935000            6524.678                          90.748
  2455614.908067            6279.567                          74.638
  2455615.907662            6076.281                          70.862
  2455634.824826            2869.755                          65.276
  2455634.865741            2886.976                          54.754
  2455636.861586            2518.635                          60.743
  2455636.902870            2456.955                          67.424
  2455637.921146            2352.679                          61.677
  2455638.894838            2103.132                          66.111
  2455641.814213            1479.527                          62.182
  2455641.854838            1602.364                         105.256
  2455643.839514            1002.591                          67.628
  2455644.869352             715.717                          53.287
  2455645.868808             483.375                          69.335
  2455670.766111           -5379.744                          69.962
  2455672.766528           -6196.476                          69.812
  2455673.775741           -6200.341                          59.412
  2455674.805116           -6417.728                          81.606
  2455694.725926           -9970.187                          67.023
  2455695.721435          -10000.829                          93.519
  2455696.720162           -9888.223                          74.314
  2455697.737755           -9923.901                          90.044
  2455704.784201           -9534.109                          80.323
  2455722.652222           -4479.752                          56.498
  2455722.688125           -4493.612                            -NaN
  2455723.652512           -4123.631                          61.431
  2455759.654132            7542.380                          90.793
  2455937.014363           -7837.712                          80.509
  2455937.971574           -7999.865                          66.602
  2455938.958866           -8222.294                          71.245
  2455940.010833           -8377.151                          71.218
  2455940.984664           -8608.672                          92.074
  2455959.883970           -9782.415                         127.900
  2456050.729583           10809.214                          92.837
  2456051.685463           10964.984                          72.930
  2456052.690961           11057.166                          63.549
  2456053.690486           11039.900                          67.221
  2456054.690845           11032.931                          96.148
  2456077.700822           10823.611                          62.982
  2456078.634282           10535.756                          80.316
