\STAR_ID                            = "2MASS J13425945+2727109"
\DATA_CATEGORY                      = "Planet Radial Velocity Curve"
\NUMBER_OF_POINTS                   = "42"
\TIME_REFERENCE_FRAME               = "FCJD"
\MINIMUM_DATE                       = "2455610.028079"
\DATE_UNITS                         = "days"
\MAXIMUM_DATE                       = "2456078.634282"
\MINIMUM_VALUE                      = "-145.718"
\VALUE_UNITS                        = "m/s"
\MAXIMUM_VALUE                      = "150.085"
\REFERENCE                          = "Thomas et al. 2016 (PASP, 128, 5003)"
\BIBCODE                            = "2016PASP..128d5003T"
\TELESCOPE                          = "2.5m Sloan Foundation Telescope"
\INSTRUMENT                         = "MARVELS"
\WAVELENGTH_CALIBRATION_TECHNIQUE   = "Tungsten Iodine Lamp"
\OBSERVATORY_SITE                   = "Apache Point Observatory, New Mexico"
\COLUMN_FCJD                        = "Flux Centered Julian Date of observation"
\COLUMN_RADIAL_VELOCITY             = "Radial velocity relative to barycenter"
\COLUMN_RADIAL_VELOCITY_UNCERTAINTY = "Uncertainty in RADIAL_VELOCITY"
|           FCJD |   Radial_Velocity |   Radial_Velocity_Uncertainty |
|         double |            double |                        double |
|           days |               m/s |                           m/s |
  2455610.028079              -9.452                          38.489
  2455611.912025              41.002                          43.536
  2455613.935000              -7.520                          40.533
  2455614.908067              55.191                          38.602
  2455615.907662              65.770                          37.977
  2455634.824826               4.885                          18.378
  2455634.865741              55.992                          16.537
  2455636.861586             -59.189                          17.213
  2455636.902870             -76.906                          17.996
  2455637.921146             -34.756                          20.253
  2455638.894838             -81.395                          22.495
  2455641.814213             -48.368                          20.259
  2455641.854838             -32.642                          20.193
  2455643.839514              19.206                          19.959
  2455644.869352             -95.375                          22.357
  2455645.868808             -16.684                          28.516
  2455670.766111              12.117                          36.589
  2455672.766528            -145.718                          38.452
  2455673.775741             -64.775                          31.147
  2455674.805116             -31.584                          35.976
  2455694.725926               5.161                            -NaN
  2455695.721435               3.785                          20.138
  2455696.720162              19.176                          20.430
  2455697.737755             -33.520                          20.708
  2455704.784201              45.110                          25.881
  2455722.652222              13.899                          41.521
  2455722.688125              28.574                          41.734
  2455723.652512              61.348                          42.977
  2455759.654132              51.100                          44.696
  2455937.014363             135.885                          31.464
  2455937.971574             102.022                          25.763
  2455938.958866             118.939                          26.283
  2455940.010833             150.085                          29.061
  2455940.984664              74.336                          27.132
  2455959.883970              71.247                          43.972
  2456050.729583             -51.225                          23.724
  2456051.685463             -42.616                          22.267
  2456052.690961              -1.392                          19.103
  2456053.690486             -53.360                          22.773
  2456054.690845             -95.316                          22.422
  2456077.700822            -102.437                          33.381
  2456078.634282             -50.598                          36.900
