\STAR_ID                            = "2MASS J13495677+2724020"
\DATA_CATEGORY                      = "Planet Radial Velocity Curve"
\NUMBER_OF_POINTS                   = "42"
\TIME_REFERENCE_FRAME               = "FCJD"
\MINIMUM_DATE                       = "2455610.028079"
\DATE_UNITS                         = "days"
\MAXIMUM_DATE                       = "2456078.634282"
\MINIMUM_VALUE                      = "-28876.158"
\VALUE_UNITS                        = "m/s"
\MAXIMUM_VALUE                      = "6490.330"
\REFERENCE                          = "Thomas et al. 2016 (PASP, 128, 5003)"
\BIBCODE                            = "2016PASP..128d5003T"
\TELESCOPE                          = "2.5m Sloan Foundation Telescope"
\INSTRUMENT                         = "MARVELS"
\WAVELENGTH_CALIBRATION_TECHNIQUE   = "Tungsten Iodine Lamp"
\OBSERVATORY_SITE                   = "Apache Point Observatory, New Mexico"
\COLUMN_FCJD                        = "Flux Centered Julian Date of observation"
\COLUMN_RADIAL_VELOCITY             = "Radial velocity relative to barycenter"
\COLUMN_RADIAL_VELOCITY_UNCERTAINTY = "Uncertainty in RADIAL_VELOCITY"
|           FCJD |   Radial_Velocity |   Radial_Velocity_Uncertainty |
|         double |            double |                        double |
|           days |               m/s |                           m/s |
  2455610.028079            5432.301                         418.027
  2455611.912025            6490.330                         434.785
  2455613.935000            6288.688                         430.416
  2455614.908067            5898.912                         396.314
  2455615.907662            5368.286                         276.404
  2455634.824826            2450.579                         159.395
  2455634.865741            2380.487                         157.101
  2455636.861586            2161.645                         227.637
  2455636.902870            2023.083                         162.522
  2455637.921146            1666.365                         152.650
  2455638.894838            1497.508                         178.691
  2455641.814213             269.002                         244.993
  2455641.854838             748.159                         220.708
  2455643.839514                -NaN                            -NaN
  2455644.869352            -205.513                         242.916
  2455645.868808            -738.665                         297.040
  2455670.766111          -21090.424                         484.456
  2455672.766528          -25049.299                         311.107
  2455673.775741          -26648.797                         234.166
  2455674.805116          -28876.158                         380.266
  2455694.725926           -4431.729                         340.355
  2455695.721435           -3729.010                         367.421
  2455696.720162           -1150.189                         563.172
  2455697.737755                -NaN                            -NaN
  2455704.784201            3612.215                         174.914
  2455722.652222            5780.275                         361.538
  2455722.688125            5648.720                         339.758
  2455723.652512            5639.652                         338.579
  2455759.654132           -3699.457                         162.168
  2455937.014363            5935.602                         308.870
  2455937.971574            5960.576                         340.476
  2455938.958866            5323.789                         346.013
  2455940.010833            5443.601                         342.027
  2455940.984664            5358.901                         333.676
  2455959.883970            1628.174                         281.964
  2456050.729583            5620.923                         165.133
  2456051.685463            5427.015                         150.227
  2456052.690961            4942.961                         111.889
  2456053.690486            5530.754                         172.754
  2456054.690845            4553.667                         188.404
  2456077.700822           -1679.420                            -NaN
  2456078.634282           -1783.508                         144.583
