\STAR_ID                            = "2MASS J13480133+2638532"
\DATA_CATEGORY                      = "Planet Radial Velocity Curve"
\NUMBER_OF_POINTS                   = "42"
\TIME_REFERENCE_FRAME               = "FCJD"
\MINIMUM_DATE                       = "2455610.028079"
\DATE_UNITS                         = "days"
\MAXIMUM_DATE                       = "2456078.634282"
\MINIMUM_VALUE                      = "-431.498"
\VALUE_UNITS                        = "m/s"
\MAXIMUM_VALUE                      = "662.049"
\REFERENCE                          = "Thomas et al. 2016 (PASP, 128, 5003)"
\BIBCODE                            = "2016PASP..128d5003T"
\TELESCOPE                          = "2.5m Sloan Foundation Telescope"
\INSTRUMENT                         = "MARVELS"
\WAVELENGTH_CALIBRATION_TECHNIQUE   = "Tungsten Iodine Lamp"
\OBSERVATORY_SITE                   = "Apache Point Observatory, New Mexico"
\COLUMN_FCJD                        = "Flux Centered Julian Date of observation"
\COLUMN_RADIAL_VELOCITY             = "Radial velocity relative to barycenter"
\COLUMN_RADIAL_VELOCITY_UNCERTAINTY = "Uncertainty in RADIAL_VELOCITY"
|           FCJD |   Radial_Velocity |   Radial_Velocity_Uncertainty |
|         double |            double |                        double |
|           days |               m/s |                           m/s |
  2455610.028079             268.541                          96.275
  2455611.912025             662.049                          93.335
  2455613.935000             305.722                         164.037
  2455614.908067              82.613                          64.079
  2455615.907662             -63.831                          64.079
  2455634.824826             272.444                          94.510
  2455634.865741             -79.303                          79.826
  2455636.861586             -36.452                          82.752
  2455636.902870             -13.533                          70.348
  2455637.921146              25.222                          75.109
  2455638.894838              38.198                          80.012
  2455641.814213                -NaN                            -NaN
  2455641.854838                -NaN                            -NaN
  2455643.839514              -7.361                          84.789
  2455644.869352              17.802                          58.846
  2455645.868808              19.506                         106.664
  2455670.766111             -18.939                         100.389
  2455672.766528            -207.406                          88.141
  2455673.775741              77.399                          74.843
  2455674.805116              98.205                         107.099
  2455694.725926               8.001                         103.559
  2455695.721435              -6.889                         157.943
  2455696.720162            -332.225                         120.626
  2455697.737755            -302.560                         100.934
  2455704.784201             -31.448                          70.520
  2455722.652222               8.954                          75.831
  2455722.688125              54.102                          84.232
  2455723.652512              81.815                          93.580
  2455759.654132              -1.474                          99.424
  2455937.014363             160.271                          88.698
  2455937.971574             -28.429                          92.648
  2455938.958866             400.680                         132.169
  2455940.010833             165.885                         144.729
  2455940.984664             124.312                         129.168
  2455959.883970              15.498                         102.738
  2456050.729583            -431.498                          94.276
  2456051.685463             -72.240                            -NaN
  2456052.690961             -23.436                          74.936
  2456053.690486            -406.227                          99.630
  2456054.690845            -286.240                          90.742
  2456077.700822            -219.566                          95.398
  2456078.634282            -318.162                         100.096
