\STAR_ID                            = "2MASS J13434539+2647556"
\DATA_CATEGORY                      = "Planet Radial Velocity Curve"
\NUMBER_OF_POINTS                   = "42"
\TIME_REFERENCE_FRAME               = "FCJD"
\MINIMUM_DATE                       = "2455610.028079"
\DATE_UNITS                         = "days"
\MAXIMUM_DATE                       = "2456078.634282"
\MINIMUM_VALUE                      = "-25745.732"
\VALUE_UNITS                        = "m/s"
\MAXIMUM_VALUE                      = "1912.177"
\REFERENCE                          = "Thomas et al. 2016 (PASP, 128, 5003)"
\BIBCODE                            = "2016PASP..128d5003T"
\TELESCOPE                          = "2.5m Sloan Foundation Telescope"
\INSTRUMENT                         = "MARVELS"
\WAVELENGTH_CALIBRATION_TECHNIQUE   = "Tungsten Iodine Lamp"
\OBSERVATORY_SITE                   = "Apache Point Observatory, New Mexico"
\COLUMN_FCJD                        = "Flux Centered Julian Date of observation"
\COLUMN_RADIAL_VELOCITY             = "Radial velocity relative to barycenter"
\COLUMN_RADIAL_VELOCITY_UNCERTAINTY = "Uncertainty in RADIAL_VELOCITY"
|           FCJD |   Radial_Velocity |   Radial_Velocity_Uncertainty |
|         double |            double |                        double |
|           days |               m/s |                           m/s |
  2455610.028079            1279.357                          89.134
  2455611.912025            1876.078                         108.067
  2455613.935000            1532.728                          70.544
  2455614.908067            1439.878                          79.511
  2455615.907662            1557.511                          82.277
  2455634.824826          -25745.732                          73.463
  2455634.865741          -25559.988                         115.233
  2455636.861586            1266.437                          62.267
  2455636.902870            1266.306                          70.740
  2455637.921146            1201.817                          68.958
  2455638.894838            1242.335                            -NaN
  2455641.814213            1456.034                          60.451
  2455641.854838            1467.939                          72.867
  2455643.839514            1281.078                          70.069
  2455644.869352            1339.769                          62.632
  2455645.868808            1369.974                          84.406
  2455670.766111            1348.884                          92.885
  2455672.766528            1431.351                          77.889
  2455673.775741            1482.734                          70.294
  2455674.805116            1546.068                         105.349
  2455694.725926            1450.314                          62.306
  2455695.721435            1311.799                          80.177
  2455696.720162            1169.695                         114.970
  2455697.737755            1203.802                         110.065
  2455704.784201            1313.024                          88.952
  2455722.652222            1185.580                          91.882
  2455722.688125            1281.797                          94.153
  2455723.652512            1198.392                          87.516
  2455759.654132            1231.541                          95.590
  2455937.014363            1146.791                          59.119
  2455937.971574            1509.343                          74.638
  2455938.958866            1327.238                          91.947
  2455940.010833            1341.701                          96.454
  2455940.984664            1912.177                         123.667
  2455959.883970            1169.080                          87.626
  2456050.729583            1245.839                         108.014
  2456051.685463            1205.430                          70.797
  2456052.690961            1409.005                          54.395
  2456053.690486            1254.443                          74.480
  2456054.690845            1052.448                          92.034
  2456077.700822                -NaN                            -NaN
  2456078.634282                -NaN                            -NaN
