\STAR_ID                            = "2MASS J13480577+2849170"
\DATA_CATEGORY                      = "Planet Radial Velocity Curve"
\NUMBER_OF_POINTS                   = "42"
\TIME_REFERENCE_FRAME               = "FCJD"
\MINIMUM_DATE                       = "2455610.028079"
\DATE_UNITS                         = "days"
\MAXIMUM_DATE                       = "2456078.634282"
\MINIMUM_VALUE                      = "-441.089"
\VALUE_UNITS                        = "m/s"
\MAXIMUM_VALUE                      = "391.950"
\REFERENCE                          = "Thomas et al. 2016 (PASP, 128, 5003)"
\BIBCODE                            = "2016PASP..128d5003T"
\TELESCOPE                          = "2.5m Sloan Foundation Telescope"
\INSTRUMENT                         = "MARVELS"
\WAVELENGTH_CALIBRATION_TECHNIQUE   = "Tungsten Iodine Lamp"
\OBSERVATORY_SITE                   = "Apache Point Observatory, New Mexico"
\COLUMN_FCJD                        = "Flux Centered Julian Date of observation"
\COLUMN_RADIAL_VELOCITY             = "Radial velocity relative to barycenter"
\COLUMN_RADIAL_VELOCITY_UNCERTAINTY = "Uncertainty in RADIAL_VELOCITY"
|           FCJD |   Radial_Velocity |   Radial_Velocity_Uncertainty |
|         double |            double |                        double |
|           days |               m/s |                           m/s |
  2455610.028079              60.362                         157.532
  2455611.912025             360.254                         142.915
  2455613.935000             302.857                         135.977
  2455614.908067             -83.729                         102.050
  2455615.907662              28.213                         109.300
  2455634.824826             -90.117                         112.543
  2455634.865741            -211.943                         131.963
  2455636.861586               6.119                         119.534
  2455636.902870             127.657                         134.206
  2455637.921146             121.809                         115.881
  2455638.894838             103.946                         112.207
  2455641.814213                -NaN                            -NaN
  2455641.854838                -NaN                            -NaN
  2455643.839514            -127.591                         138.842
  2455644.869352               8.777                         124.187
  2455645.868808             -68.701                         131.502
  2455670.766111             -35.312                         125.256
  2455672.766528             391.950                         130.511
  2455673.775741             195.135                         133.076
  2455674.805116             272.284                         141.873
  2455694.725926             -92.586                         112.456
  2455695.721435            -193.010                         169.476
  2455696.720162             -88.602                         151.261
  2455697.737755            -146.661                         173.007
  2455704.784201              40.063                         128.702
  2455722.652222              -7.469                         117.636
  2455722.688125            -150.092                         151.898
  2455723.652512             -87.870                         132.568
  2455759.654132             185.680                         154.973
  2455937.014363              39.166                         156.249
  2455937.971574              33.820                         122.092
  2455938.958866             357.715                         120.314
  2455940.010833             -88.034                         125.345
  2455940.984664             135.286                         100.638
  2455959.883970             234.168                         140.618
  2456050.729583            -183.600                         114.443
  2456051.685463             -13.390                            -NaN
  2456052.690961            -110.493                         119.787
  2456053.690486            -272.195                          96.489
  2456054.690845            -441.089                         158.839
  2456077.700822             -95.938                         108.416
  2456078.634282            -416.841                         130.649
