\STAR_ID                            = "2MASS J13443091+2620081"
\DATA_CATEGORY                      = "Planet Radial Velocity Curve"
\NUMBER_OF_POINTS                   = "42"
\TIME_REFERENCE_FRAME               = "FCJD"
\MINIMUM_DATE                       = "2455610.028079"
\DATE_UNITS                         = "days"
\MAXIMUM_DATE                       = "2456078.634282"
\MINIMUM_VALUE                      = "-4309.003"
\VALUE_UNITS                        = "m/s"
\MAXIMUM_VALUE                      = "6084.730"
\REFERENCE                          = "Thomas et al. 2016 (PASP, 128, 5003)"
\BIBCODE                            = "2016PASP..128d5003T"
\TELESCOPE                          = "2.5m Sloan Foundation Telescope"
\INSTRUMENT                         = "MARVELS"
\WAVELENGTH_CALIBRATION_TECHNIQUE   = "Tungsten Iodine Lamp"
\OBSERVATORY_SITE                   = "Apache Point Observatory, New Mexico"
\COLUMN_FCJD                        = "Flux Centered Julian Date of observation"
\COLUMN_RADIAL_VELOCITY             = "Radial velocity relative to barycenter"
\COLUMN_RADIAL_VELOCITY_UNCERTAINTY = "Uncertainty in RADIAL_VELOCITY"
|           FCJD |   Radial_Velocity |   Radial_Velocity_Uncertainty |
|         double |            double |                        double |
|           days |               m/s |                           m/s |
  2455610.028079            4243.567                          62.501
  2455611.912025            3889.799                          78.995
  2455613.935000            3527.157                          63.260
  2455614.908067            3354.211                          47.650
  2455615.907662            3270.543                          56.654
  2455634.824826             873.027                            -NaN
  2455634.865741             923.540                          53.670
  2455636.861586             781.032                          51.933
  2455636.902870             716.148                          53.301
  2455637.921146             631.682                          50.055
  2455638.894838             677.885                          53.597
  2455641.814213             351.686                          61.653
  2455641.854838             421.815                          64.542
  2455643.839514             114.405                          51.323
  2455644.869352              77.554                          46.224
  2455645.868808              54.356                          48.567
  2455670.766111           -1442.775                          58.215
  2455672.766528           -1607.535                          64.336
  2455673.775741           -1711.430                          55.331
  2455674.805116           -1836.624                          78.828
  2455694.725926           -2846.892                          60.248
  2455695.721435           -2889.464                          57.234
  2455696.720162           -2763.552                          86.403
  2455697.737755           -2848.593                          70.736
  2455704.784201           -3336.310                          96.819
  2455722.652222           -4303.399                          66.677
  2455722.688125           -4309.003                          62.986
  2455723.652512           -4298.524                          63.481
  2455759.654132            6084.730                          65.055
  2455937.014363            2479.022                          67.773
  2455937.971574            2292.376                          63.612
  2455938.958866            2312.023                         102.317
  2455940.010833            2217.250                         106.202
  2455940.984664            2056.008                          95.232
  2455959.883970             272.987                          77.620
  2456050.729583           -3932.250                          87.170
  2456051.685463           -3971.142                          52.461
  2456052.690961           -3853.965                          81.321
  2456053.690486           -3586.636                          48.656
  2456054.690845           -3337.302                          90.647
  2456077.700822            5744.279                          62.709
  2456078.634282            5508.313                          64.148
