\STAR_ID                            = "2MASS J13500914+2805011"
\DATA_CATEGORY                      = "Planet Radial Velocity Curve"
\NUMBER_OF_POINTS                   = "42"
\TIME_REFERENCE_FRAME               = "FCJD"
\MINIMUM_DATE                       = "2455610.028079"
\DATE_UNITS                         = "days"
\MAXIMUM_DATE                       = "2456078.634282"
\MINIMUM_VALUE                      = "-6082.286"
\VALUE_UNITS                        = "m/s"
\MAXIMUM_VALUE                      = "21445.494"
\REFERENCE                          = "Thomas et al. 2016 (PASP, 128, 5003)"
\BIBCODE                            = "2016PASP..128d5003T"
\TELESCOPE                          = "2.5m Sloan Foundation Telescope"
\INSTRUMENT                         = "MARVELS"
\WAVELENGTH_CALIBRATION_TECHNIQUE   = "Tungsten Iodine Lamp"
\OBSERVATORY_SITE                   = "Apache Point Observatory, New Mexico"
\COLUMN_FCJD                        = "Flux Centered Julian Date of observation"
\COLUMN_RADIAL_VELOCITY             = "Radial velocity relative to barycenter"
\COLUMN_RADIAL_VELOCITY_UNCERTAINTY = "Uncertainty in RADIAL_VELOCITY"
|           FCJD |   Radial_Velocity |   Radial_Velocity_Uncertainty |
|         double |            double |                        double |
|           days |               m/s |                           m/s |
  2455610.028079           -4865.624                          70.654
  2455611.912025           -5006.944                          85.845
  2455613.935000           -5303.329                          90.319
  2455614.908067           -5812.000                          58.245
  2455615.907662           -6056.640                          90.398
  2455634.824826           -2161.758                          66.455
  2455634.865741           -1977.568                          86.414
  2455636.861586            1403.109                          70.163
  2455636.902870            1546.450                          78.977
  2455637.921146            4524.104                          63.151
  2455638.894838            8624.033                          62.580
  2455641.814213           21231.336                          90.115
  2455641.854838           21445.494                          61.401
  2455643.839514           19047.467                          70.151
  2455644.869352           16232.148                          71.332
  2455645.868808           13725.481                          72.991
  2455670.766111           -3781.831                          63.870
  2455672.766528           -4310.462                          93.421
  2455673.775741           -4769.050                          73.377
  2455674.805116           -4807.750                          87.086
  2455694.725926           -5592.166                          71.260
  2455695.721435           -5232.206                          92.416
  2455696.720162           -4944.425                          88.685
  2455697.737755           -4390.396                          87.592
  2455704.784201           12357.411                         100.435
  2455722.652222             566.693                          84.922
  2455722.688125             418.676                          71.803
  2455723.652512             -43.184                          75.840
  2455759.654132           -5762.949                          96.027
  2455937.014363           -4885.209                          96.149
  2455937.971574           -4982.358                          76.827
  2455938.958866           -4869.201                          86.702
  2455940.010833           -5625.620                          76.953
  2455940.984664           -5536.335                          68.683
  2455959.883970           -2914.386                          91.656
  2456050.729583             -81.487                          89.675
  2456051.685463            -831.510                            -NaN
  2456052.690961           -1168.437                          56.161
  2456053.690486           -1533.973                          73.647
  2456054.690845           -1735.204                          76.832
  2456077.700822           -6082.286                          73.251
  2456078.634282           -6058.123                          85.421
