\STAR_ID                            = "2MASS J13483942+2738396"
\DATA_CATEGORY                      = "Planet Radial Velocity Curve"
\NUMBER_OF_POINTS                   = "42"
\TIME_REFERENCE_FRAME               = "FCJD"
\MINIMUM_DATE                       = "2455610.028079"
\DATE_UNITS                         = "days"
\MAXIMUM_DATE                       = "2456078.634282"
\MINIMUM_VALUE                      = "-3236.940"
\VALUE_UNITS                        = "m/s"
\MAXIMUM_VALUE                      = "1821.583"
\REFERENCE                          = "Thomas et al. 2016 (PASP, 128, 5003)"
\BIBCODE                            = "2016PASP..128d5003T"
\TELESCOPE                          = "2.5m Sloan Foundation Telescope"
\INSTRUMENT                         = "MARVELS"
\WAVELENGTH_CALIBRATION_TECHNIQUE   = "Tungsten Iodine Lamp"
\OBSERVATORY_SITE                   = "Apache Point Observatory, New Mexico"
\COLUMN_FCJD                        = "Flux Centered Julian Date of observation"
\COLUMN_RADIAL_VELOCITY             = "Radial velocity relative to barycenter"
\COLUMN_RADIAL_VELOCITY_UNCERTAINTY = "Uncertainty in RADIAL_VELOCITY"
|           FCJD |   Radial_Velocity |   Radial_Velocity_Uncertainty |
|         double |            double |                        double |
|           days |               m/s |                           m/s |
  2455610.028079            1260.909                          74.021
  2455611.912025            1214.943                          84.806
  2455613.935000            1132.663                         102.003
  2455614.908067            1383.263                          62.232
  2455615.907662            1382.082                          83.532
  2455634.824826            1671.716                          83.307
  2455634.865741            1696.736                          95.259
  2455636.861586            1782.753                          78.401
  2455636.902870            1652.032                          79.307
  2455637.921146            1790.437                          82.924
  2455638.894838            1719.040                          84.728
  2455641.814213            1821.583                          75.758
  2455641.854838            1756.746                          66.277
  2455643.839514            1666.985                          81.750
  2455644.869352            1794.523                          60.346
  2455645.868808            1725.682                          74.716
  2455670.766111            1506.089                          83.196
  2455672.766528            1448.582                          87.186
  2455673.775741            1592.312                          82.500
  2455674.805116            1588.636                          96.795
  2455694.725926            1420.945                          86.756
  2455695.721435            1599.340                          70.659
  2455696.720162            1655.975                          66.193
  2455697.737755            1282.035                          74.497
  2455704.784201            1112.891                          57.779
  2455722.652222             476.023                          38.648
  2455722.688125             567.386                            -NaN
  2455723.652512             455.808                          48.097
  2455759.654132            -811.085                          58.090
  2455937.014363           -3030.401                          86.187
  2455937.971574           -3007.142                          75.986
  2455938.958866           -3236.940                          87.354
  2455940.010833           -2976.658                          83.654
  2455940.984664           -2924.166                          86.846
  2455959.883970           -3060.865                          75.726
  2456050.729583           -3068.882                          89.897
  2456051.685463           -3109.266                          96.043
  2456052.690961           -3046.860                          78.944
  2456053.690486           -3077.351                          78.838
  2456054.690845           -3132.338                          70.713
  2456077.700822           -2847.739                          61.237
  2456078.634282           -2828.425                          65.222
