\STAR_ID                            = "2MASS J13443187+2800039"
\DATA_CATEGORY                      = "Planet Radial Velocity Curve"
\NUMBER_OF_POINTS                   = "42"
\TIME_REFERENCE_FRAME               = "FCJD"
\MINIMUM_DATE                       = "2455610.028079"
\DATE_UNITS                         = "days"
\MAXIMUM_DATE                       = "2456078.634282"
\MINIMUM_VALUE                      = "-195.517"
\VALUE_UNITS                        = "m/s"
\MAXIMUM_VALUE                      = "221.970"
\REFERENCE                          = "Thomas et al. 2016 (PASP, 128, 5003)"
\BIBCODE                            = "2016PASP..128d5003T"
\TELESCOPE                          = "2.5m Sloan Foundation Telescope"
\INSTRUMENT                         = "MARVELS"
\WAVELENGTH_CALIBRATION_TECHNIQUE   = "Tungsten Iodine Lamp"
\OBSERVATORY_SITE                   = "Apache Point Observatory, New Mexico"
\COLUMN_FCJD                        = "Flux Centered Julian Date of observation"
\COLUMN_RADIAL_VELOCITY             = "Radial velocity relative to barycenter"
\COLUMN_RADIAL_VELOCITY_UNCERTAINTY = "Uncertainty in RADIAL_VELOCITY"
|           FCJD |   Radial_Velocity |   Radial_Velocity_Uncertainty |
|         double |            double |                        double |
|           days |               m/s |                           m/s |
  2455610.028079              98.240                          67.562
  2455611.912025             209.329                          65.254
  2455613.935000               6.013                          98.928
  2455614.908067              73.428                          46.632
  2455615.907662              41.255                          63.100
  2455634.824826              39.007                          60.890
  2455634.865741            -121.659                          99.584
  2455636.861586             -28.623                          67.963
  2455636.902870             -96.786                          65.363
  2455637.921146             -27.638                          50.285
  2455638.894838             -14.328                          75.755
  2455641.814213             -32.069                          64.803
  2455641.854838              16.013                          74.942
  2455643.839514             -59.392                          55.408
  2455644.869352            -105.066                          48.450
  2455645.868808             -46.307                          66.536
  2455670.766111             100.011                          88.242
  2455672.766528             -19.271                          65.115
  2455673.775741             -64.982                          57.956
  2455674.805116             105.203                          74.400
  2455694.725926             -38.456                          53.479
  2455695.721435             -50.257                          65.561
  2455696.720162             -51.880                          65.329
  2455697.737755              54.388                          75.666
  2455704.784201             -11.734                          52.205
  2455722.652222             -18.040                          68.479
  2455722.688125               3.119                          74.064
  2455723.652512             -31.677                          74.239
  2455759.654132                -NaN                            -NaN
  2455937.014363             -63.308                          68.089
  2455937.971574              47.248                          76.097
  2455938.958866             -74.921                          64.272
  2455940.010833             -59.004                          51.842
  2455940.984664            -195.517                          82.342
  2455959.883970              13.364                          72.811
  2456050.729583             221.970                          57.124
  2456051.685463             -64.400                            -NaN
  2456052.690961              -4.875                          54.799
  2456053.690486              94.031                          53.696
  2456054.690845             145.825                          72.478
  2456077.700822             -35.053                          69.263
  2456078.634282              46.800                          80.023
