\STAR_ID                            = "2MASS J14024791+2805529"
\DATA_CATEGORY                      = "Planet Radial Velocity Curve"
\NUMBER_OF_POINTS                   = "35"
\TIME_REFERENCE_FRAME               = "FCJD"
\MINIMUM_DATE                       = "2455613.974352"
\DATE_UNITS                         = "days"
\MAXIMUM_DATE                       = "2456048.807477"
\MINIMUM_VALUE                      = "-403.924"
\VALUE_UNITS                        = "m/s"
\MAXIMUM_VALUE                      = "464.735"
\REFERENCE                          = "Thomas et al. 2016 (PASP, 128, 5003)"
\BIBCODE                            = "2016PASP..128d5003T"
\TELESCOPE                          = "2.5m Sloan Foundation Telescope"
\INSTRUMENT                         = "MARVELS"
\WAVELENGTH_CALIBRATION_TECHNIQUE   = "Tungsten Iodine Lamp"
\OBSERVATORY_SITE                   = "Apache Point Observatory, New Mexico"
\COLUMN_FCJD                        = "Flux Centered Julian Date of observation"
\COLUMN_RADIAL_VELOCITY             = "Radial velocity relative to barycenter"
\COLUMN_RADIAL_VELOCITY_UNCERTAINTY = "Uncertainty in RADIAL_VELOCITY"
|           FCJD |   Radial_Velocity |   Radial_Velocity_Uncertainty |
|         double |            double |                        double |
|           days |               m/s |                           m/s |
  2455613.974352              -2.306                         119.526
  2455614.949688            -278.386                         118.229
  2455615.949375            -181.232                         121.551
  2455635.872095              55.890                         126.821
  2455636.946285             180.246                          94.079
  2455636.987257             179.643                         113.894
  2455637.961215             110.191                         124.451
  2455638.936354             -13.512                         102.438
  2455638.976609              23.340                         105.239
  2455639.964884               4.879                          80.238
  2455640.941157             192.625                          84.364
  2455641.940532             208.648                         133.636
  2455643.927801             -20.832                          94.300
  2455644.959792              59.086                          69.694
  2455645.953368              70.149                         111.163
  2455667.878391            -206.356                          98.935
  2455668.890775            -319.007                         102.982
  2455669.907975            -281.848                         103.213
  2455672.893137            -329.393                         164.238
  2455673.911736              66.992                          84.973
  2455674.917778                -NaN                            -NaN
  2455693.760787            -102.860                          93.648
  2455694.768414            -103.472                         119.418
  2455695.763796             -82.625                         136.211
  2455696.762361             -91.238                         123.489
  2455697.780463            -102.049                         154.928
  2455724.696829             136.115                         117.458
  2455726.693183            -403.924                         141.390
  2455727.684653             302.531                         141.974
  2455935.001134             464.735                         129.572
  2455939.012581             274.948                         101.017
  2455968.932731             -16.866                          90.257
  2456024.850671              38.689                            -NaN
  2456029.829664              67.971                          74.927
  2456048.807477              99.228                          77.380
