\STAR_ID                            = "2MASS J14045900+2952340"
\DATA_CATEGORY                      = "Planet Radial Velocity Curve"
\NUMBER_OF_POINTS                   = "35"
\TIME_REFERENCE_FRAME               = "FCJD"
\MINIMUM_DATE                       = "2455613.974352"
\DATE_UNITS                         = "days"
\MAXIMUM_DATE                       = "2456048.807477"
\MINIMUM_VALUE                      = "-9884.498"
\VALUE_UNITS                        = "m/s"
\MAXIMUM_VALUE                      = "3383.002"
\REFERENCE                          = "Thomas et al. 2016 (PASP, 128, 5003)"
\BIBCODE                            = "2016PASP..128d5003T"
\TELESCOPE                          = "2.5m Sloan Foundation Telescope"
\INSTRUMENT                         = "MARVELS"
\WAVELENGTH_CALIBRATION_TECHNIQUE   = "Tungsten Iodine Lamp"
\OBSERVATORY_SITE                   = "Apache Point Observatory, New Mexico"
\COLUMN_FCJD                        = "Flux Centered Julian Date of observation"
\COLUMN_RADIAL_VELOCITY             = "Radial velocity relative to barycenter"
\COLUMN_RADIAL_VELOCITY_UNCERTAINTY = "Uncertainty in RADIAL_VELOCITY"
|           FCJD |   Radial_Velocity |   Radial_Velocity_Uncertainty |
|         double |            double |                        double |
|           days |               m/s |                           m/s |
  2455613.974352            -224.466                         152.169
  2455614.949688            -250.309                         151.167
  2455615.949375            -165.045                         140.737
  2455635.872095             614.396                         140.278
  2455636.946285             530.389                         139.123
  2455636.987257             638.459                         143.706
  2455637.961215             643.330                         133.943
  2455638.936354             636.318                         168.676
  2455638.976609             577.421                         148.127
  2455639.964884             682.577                         153.418
  2455640.941157             608.280                         144.212
  2455641.940532            1004.148                         151.177
  2455643.927801             845.869                         126.216
  2455644.959792             788.199                         160.909
  2455645.953368             961.736                         229.275
  2455667.878391            1864.767                         150.251
  2455668.890775            2025.273                         142.054
  2455669.907975            2046.653                         142.722
  2455672.893137            2157.494                         164.371
  2455673.911736            2076.970                         154.051
  2455674.917778                -NaN                            -NaN
  2455693.760787            2414.408                         156.794
  2455694.768414            2624.677                         137.451
  2455695.763796            2549.052                         165.901
  2455696.762361            2584.734                         167.314
  2455697.780463            2729.816                         136.270
  2455724.696829            3383.002                         130.117
  2455726.693183            3235.270                         171.662
  2455727.684653            3363.254                         154.256
  2455935.001134           -3383.653                         132.793
  2455939.012581           -3638.512                         160.639
  2455968.932731           -5951.107                         141.439
  2456024.850671           -8840.674                            -NaN
  2456029.829664           -9248.226                         120.234
  2456048.807477           -9884.498                         135.721
