\STAR_ID                            = "2MASS J14112143+2935418"
\DATA_CATEGORY                      = "Planet Radial Velocity Curve"
\NUMBER_OF_POINTS                   = "35"
\TIME_REFERENCE_FRAME               = "FCJD"
\MINIMUM_DATE                       = "2455613.974352"
\DATE_UNITS                         = "days"
\MAXIMUM_DATE                       = "2456048.807477"
\MINIMUM_VALUE                      = "-11849.306"
\VALUE_UNITS                        = "m/s"
\MAXIMUM_VALUE                      = "23418.303"
\REFERENCE                          = "Thomas et al. 2016 (PASP, 128, 5003)"
\BIBCODE                            = "2016PASP..128d5003T"
\TELESCOPE                          = "2.5m Sloan Foundation Telescope"
\INSTRUMENT                         = "MARVELS"
\WAVELENGTH_CALIBRATION_TECHNIQUE   = "Tungsten Iodine Lamp"
\OBSERVATORY_SITE                   = "Apache Point Observatory, New Mexico"
\COLUMN_FCJD                        = "Flux Centered Julian Date of observation"
\COLUMN_RADIAL_VELOCITY             = "Radial velocity relative to barycenter"
\COLUMN_RADIAL_VELOCITY_UNCERTAINTY = "Uncertainty in RADIAL_VELOCITY"
|           FCJD |   Radial_Velocity |   Radial_Velocity_Uncertainty |
|         double |            double |                        double |
|           days |               m/s |                           m/s |
  2455613.974352            4562.767                          47.111
  2455614.949688            2973.029                          38.606
  2455615.949375            1310.573                          38.679
  2455635.872095          -11749.261                          31.960
  2455636.946285          -11846.173                          31.618
  2455636.987257          -11849.306                          26.355
  2455637.961215          -11812.228                          27.103
  2455638.936354          -11777.339                          27.382
  2455638.976609          -11761.744                          28.722
  2455639.964884          -11670.194                          23.279
  2455640.941157          -11553.866                          31.574
  2455641.940532          -11384.000                          33.771
  2455643.927801          -11008.736                          28.819
  2455644.959792          -10818.199                          24.093
  2455645.953368          -10534.089                          34.706
  2455667.878391            1834.745                          26.125
  2455668.890775            2742.694                          26.000
  2455669.907975            3731.761                          29.380
  2455672.893137            6708.670                          29.121
  2455673.911736            7744.875                          24.922
  2455674.917778                -NaN                            -NaN
  2455693.760787           23418.303                          37.447
  2455694.768414           22278.137                          29.297
  2455695.763796           21028.574                          35.441
  2455696.762361           19601.549                          28.493
  2455697.780463           17867.469                          20.752
  2455724.696829          -11583.627                          26.470
  2455726.693183          -11651.232                          40.008
  2455727.684653          -11817.537                          31.085
  2455935.001134           -2407.111                          26.411
  2455939.012581             648.440                          27.082
  2455968.932731           20226.402                          22.966
  2456024.850671           -3268.168                            -NaN
  2456029.829664             550.214                          20.901
  2456048.807477           21264.611                          25.330
