\STAR_ID                            = "2MASS J13412280+2743060"
\DATA_CATEGORY                      = "Planet Radial Velocity Curve"
\NUMBER_OF_POINTS                   = "42"
\TIME_REFERENCE_FRAME               = "FCJD"
\MINIMUM_DATE                       = "2455610.028079"
\DATE_UNITS                         = "days"
\MAXIMUM_DATE                       = "2456078.634282"
\MINIMUM_VALUE                      = "-292.273"
\VALUE_UNITS                        = "m/s"
\MAXIMUM_VALUE                      = "220.411"
\REFERENCE                          = "Thomas et al. 2016 (PASP, 128, 5003)"
\BIBCODE                            = "2016PASP..128d5003T"
\TELESCOPE                          = "2.5m Sloan Foundation Telescope"
\INSTRUMENT                         = "MARVELS"
\WAVELENGTH_CALIBRATION_TECHNIQUE   = "Tungsten Iodine Lamp"
\OBSERVATORY_SITE                   = "Apache Point Observatory, New Mexico"
\COLUMN_FCJD                        = "Flux Centered Julian Date of observation"
\COLUMN_RADIAL_VELOCITY             = "Radial velocity relative to barycenter"
\COLUMN_RADIAL_VELOCITY_UNCERTAINTY = "Uncertainty in RADIAL_VELOCITY"
|           FCJD |   Radial_Velocity |   Radial_Velocity_Uncertainty |
|         double |            double |                        double |
|           days |               m/s |                           m/s |
  2455610.028079              62.548                          77.027
  2455611.912025             178.242                          55.113
  2455613.935000             181.423                          69.468
  2455614.908067             220.411                          50.669
  2455615.907662             128.172                          61.588
  2455634.824826             185.583                            -NaN
  2455634.865741              29.807                          63.930
  2455636.861586              -6.518                          57.706
  2455636.902870             -54.429                          59.546
  2455637.921146             -17.053                          52.548
  2455638.894838             -64.023                          56.265
  2455641.814213            -125.135                          40.035
  2455641.854838             -78.785                          49.480
  2455643.839514              92.520                          62.490
  2455644.869352            -283.721                          57.957
  2455645.868808             118.361                          57.586
  2455670.766111              84.430                          57.856
  2455672.766528            -200.294                          63.917
  2455673.775741            -197.005                          52.622
  2455674.805116            -112.283                          81.607
  2455694.725926             -48.592                          49.640
  2455695.721435             100.745                          80.013
  2455696.720162              10.664                          69.918
  2455697.737755            -183.394                          96.584
  2455704.784201            -115.036                          61.555
  2455722.652222             -97.035                          65.615
  2455722.688125            -114.874                          64.573
  2455723.652512              -8.799                          63.694
  2455759.654132            -182.882                          76.870
  2455937.014363             219.565                          57.652
  2455937.971574              91.292                          52.422
  2455938.958866             162.381                          52.978
  2455940.010833             194.447                          56.737
  2455940.984664             106.126                          58.263
  2455959.883970             207.258                          85.437
  2456050.729583              66.804                          84.091
  2456051.685463             -41.331                          65.848
  2456052.690961              44.820                          56.858
  2456053.690486             -73.493                          59.516
  2456054.690845             -31.850                          60.502
  2456077.700822            -292.273                          68.331
  2456078.634282            -156.792                          50.886
