\STAR_ID                            = "2MASS J13470529+2623552"
\DATA_CATEGORY                      = "Planet Radial Velocity Curve"
\NUMBER_OF_POINTS                   = "42"
\TIME_REFERENCE_FRAME               = "FCJD"
\MINIMUM_DATE                       = "2455610.028079"
\DATE_UNITS                         = "days"
\MAXIMUM_DATE                       = "2456078.634282"
\MINIMUM_VALUE                      = "-134.661"
\VALUE_UNITS                        = "m/s"
\MAXIMUM_VALUE                      = "175.971"
\REFERENCE                          = "Thomas et al. 2016 (PASP, 128, 5003)"
\BIBCODE                            = "2016PASP..128d5003T"
\TELESCOPE                          = "2.5m Sloan Foundation Telescope"
\INSTRUMENT                         = "MARVELS"
\WAVELENGTH_CALIBRATION_TECHNIQUE   = "Tungsten Iodine Lamp"
\OBSERVATORY_SITE                   = "Apache Point Observatory, New Mexico"
\COLUMN_FCJD                        = "Flux Centered Julian Date of observation"
\COLUMN_RADIAL_VELOCITY             = "Radial velocity relative to barycenter"
\COLUMN_RADIAL_VELOCITY_UNCERTAINTY = "Uncertainty in RADIAL_VELOCITY"
|           FCJD |   Radial_Velocity |   Radial_Velocity_Uncertainty |
|         double |            double |                        double |
|           days |               m/s |                           m/s |
  2455610.028079              -4.720                          51.816
  2455611.912025             175.971                          60.757
  2455613.935000              61.320                          55.946
  2455614.908067             -65.763                          60.611
  2455615.907662             -47.082                          63.691
  2455634.824826             -40.949                          53.224
  2455634.865741             -61.041                          61.702
  2455636.861586             -51.302                          63.318
  2455636.902870             -72.428                          51.116
  2455637.921146              30.172                          54.441
  2455638.894838              18.858                          59.741
  2455641.814213              27.346                          70.152
  2455641.854838              54.170                          69.934
  2455643.839514              73.250                          52.963
  2455644.869352              46.564                          55.153
  2455645.868808              41.329                          54.374
  2455670.766111             -28.433                          70.361
  2455672.766528             -44.678                          61.633
  2455673.775741             -35.523                          48.542
  2455674.805116              14.788                          66.923
  2455694.725926              75.886                          58.531
  2455695.721435             143.952                          71.994
  2455696.720162              14.589                          60.802
  2455697.737755              -1.217                          78.868
  2455704.784201              25.357                          66.286
  2455722.652222             -76.004                          66.144
  2455722.688125             -92.207                          45.822
  2455723.652512             -77.247                          59.899
  2455759.654132            -115.094                          50.753
  2455937.014363             -26.449                          60.022
  2455937.971574              46.142                          67.811
  2455938.958866               8.917                          85.179
  2455940.010833               0.755                          87.264
  2455940.984664             142.364                          75.143
  2455959.883970             -33.821                          72.561
  2456050.729583             103.608                          47.467
  2456051.685463             -30.886                          55.988
  2456052.690961              69.019                          57.412
  2456053.690486             -52.922                          59.130
  2456054.690845             -46.579                          57.314
  2456077.700822             -35.353                            -NaN
  2456078.634282            -134.661                          60.001
