\STAR_ID                            = "TYC 2004-00039-1"
\DATA_CATEGORY                      = "Planet Radial Velocity Curve"
\NUMBER_OF_POINTS                   = "42"
\TIME_REFERENCE_FRAME               = "FCJD"
\MINIMUM_DATE                       = "2455610.028079"
\DATE_UNITS                         = "days"
\MAXIMUM_DATE                       = "2456078.634282"
\MINIMUM_VALUE                      = "-102.069"
\VALUE_UNITS                        = "m/s"
\MAXIMUM_VALUE                      = "71.329"
\REFERENCE                          = "Thomas et al. 2016 (PASP, 128, 5003)"
\BIBCODE                            = "2016PASP..128d5003T"
\TELESCOPE                          = "2.5m Sloan Foundation Telescope"
\INSTRUMENT                         = "MARVELS"
\WAVELENGTH_CALIBRATION_TECHNIQUE   = "Tungsten Iodine Lamp"
\OBSERVATORY_SITE                   = "Apache Point Observatory, New Mexico"
\COLUMN_FCJD                        = "Flux Centered Julian Date of observation"
\COLUMN_RADIAL_VELOCITY             = "Radial velocity relative to barycenter"
\COLUMN_RADIAL_VELOCITY_UNCERTAINTY = "Uncertainty in RADIAL_VELOCITY"
|           FCJD |   Radial_Velocity |   Radial_Velocity_Uncertainty |
|         double |            double |                        double |
|           days |               m/s |                           m/s |
  2455610.028079             -53.094                          27.451
  2455611.912025            -102.069                          32.444
  2455613.935000             -63.499                          20.289
  2455614.908067             -43.887                          26.602
  2455615.907662             -69.942                          22.011
  2455634.824826             -18.542                          25.398
  2455634.865741              12.298                          24.035
  2455636.861586              -7.417                          25.386
  2455636.902870             -51.251                          24.442
  2455637.921146              28.967                          20.456
  2455638.894838             -47.682                          26.860
  2455641.814213              59.665                          24.280
  2455641.854838              71.329                          25.889
  2455643.839514             -11.726                          21.007
  2455644.869352              30.359                          24.870
  2455645.868808             -16.380                          20.943
  2455670.766111             -14.225                          25.330
  2455672.766528             -31.402                          26.450
  2455673.775741             -44.901                          27.579
  2455674.805116             -16.270                          28.674
  2455694.725926             -36.123                          16.641
  2455695.721435              16.919                          16.451
  2455696.720162              55.231                          21.815
  2455697.737755              54.879                          19.928
  2455704.784201              35.983                          23.726
  2455722.652222               2.020                           6.625
  2455722.688125             -17.640                            -NaN
  2455723.652512             -22.530                          17.903
  2455759.654132             -57.077                          21.042
  2455937.014363              29.381                          23.539
  2455937.971574               6.943                          22.354
  2455938.958866               0.986                          25.858
  2455940.010833              34.122                          27.491
  2455940.984664             -12.518                          21.116
  2455959.883970              16.987                          21.596
  2456050.729583              26.480                          27.065
  2456051.685463               4.188                          24.906
  2456052.690961              45.484                          23.842
  2456053.690486              36.056                          21.176
  2456054.690845              71.321                          21.510
  2456077.700822              55.784                          21.524
  2456078.634282              42.792                          23.093
