\STAR_ID                            = "2MASS J13414933+2641273"
\DATA_CATEGORY                      = "Planet Radial Velocity Curve"
\NUMBER_OF_POINTS                   = "42"
\TIME_REFERENCE_FRAME               = "FCJD"
\MINIMUM_DATE                       = "2455610.028079"
\DATE_UNITS                         = "days"
\MAXIMUM_DATE                       = "2456078.634282"
\MINIMUM_VALUE                      = "-1202.416"
\VALUE_UNITS                        = "m/s"
\MAXIMUM_VALUE                      = "935.875"
\REFERENCE                          = "Thomas et al. 2016 (PASP, 128, 5003)"
\BIBCODE                            = "2016PASP..128d5003T"
\TELESCOPE                          = "2.5m Sloan Foundation Telescope"
\INSTRUMENT                         = "MARVELS"
\WAVELENGTH_CALIBRATION_TECHNIQUE   = "Tungsten Iodine Lamp"
\OBSERVATORY_SITE                   = "Apache Point Observatory, New Mexico"
\COLUMN_FCJD                        = "Flux Centered Julian Date of observation"
\COLUMN_RADIAL_VELOCITY             = "Radial velocity relative to barycenter"
\COLUMN_RADIAL_VELOCITY_UNCERTAINTY = "Uncertainty in RADIAL_VELOCITY"
|           FCJD |   Radial_Velocity |   Radial_Velocity_Uncertainty |
|         double |            double |                        double |
|           days |               m/s |                           m/s |
  2455610.028079             543.914                         266.884
  2455611.912025             935.875                         266.733
  2455613.935000             329.147                         250.278
  2455614.908067             319.956                         191.053
  2455615.907662              33.953                         158.275
  2455634.824826             186.754                         185.988
  2455634.865741             278.607                         145.336
  2455636.861586             409.288                         146.833
  2455636.902870             258.128                         171.576
  2455637.921146             354.180                         153.208
  2455638.894838              97.431                         124.932
  2455641.814213              36.128                         168.955
  2455641.854838              98.434                         121.015
  2455643.839514              93.196                         184.294
  2455644.869352             235.215                            -NaN
  2455645.868808              88.358                         156.887
  2455670.766111            -232.251                         252.027
  2455672.766528             121.579                         265.875
  2455673.775741             107.512                         169.734
  2455674.805116            -158.682                         257.674
  2455694.725926              82.538                         147.123
  2455695.721435            -152.222                         245.014
  2455696.720162            -446.419                         261.809
  2455697.737755            -548.213                         370.227
  2455704.784201             133.478                         311.975
  2455722.652222            -585.453                         223.836
  2455722.688125             -57.412                         221.247
  2455723.652512            -154.775                         199.368
  2455759.654132            -197.177                         234.271
  2455937.014363             214.382                         192.184
  2455937.971574             231.763                         137.944
  2455938.958866             716.161                         219.241
  2455940.010833             388.295                         214.158
  2455940.984664             185.292                         279.724
  2455959.883970             245.292                         325.422
  2456050.729583           -1202.416                         318.184
  2456051.685463            -392.147                         233.753
  2456052.690961            -395.419                         192.997
  2456053.690486            -467.924                         190.184
  2456054.690845            -901.172                         257.440
  2456077.700822            -374.448                         201.100
  2456078.634282            -458.726                         147.063
