\STAR_ID                            = "2MASS J13493616+2730121"
\DATA_CATEGORY                      = "Planet Radial Velocity Curve"
\NUMBER_OF_POINTS                   = "42"
\TIME_REFERENCE_FRAME               = "FCJD"
\MINIMUM_DATE                       = "2455610.028079"
\DATE_UNITS                         = "days"
\MAXIMUM_DATE                       = "2456078.634282"
\MINIMUM_VALUE                      = "-4605.594"
\VALUE_UNITS                        = "m/s"
\MAXIMUM_VALUE                      = "12053.451"
\REFERENCE                          = "Thomas et al. 2016 (PASP, 128, 5003)"
\BIBCODE                            = "2016PASP..128d5003T"
\TELESCOPE                          = "2.5m Sloan Foundation Telescope"
\INSTRUMENT                         = "MARVELS"
\WAVELENGTH_CALIBRATION_TECHNIQUE   = "Tungsten Iodine Lamp"
\OBSERVATORY_SITE                   = "Apache Point Observatory, New Mexico"
\COLUMN_FCJD                        = "Flux Centered Julian Date of observation"
\COLUMN_RADIAL_VELOCITY             = "Radial velocity relative to barycenter"
\COLUMN_RADIAL_VELOCITY_UNCERTAINTY = "Uncertainty in RADIAL_VELOCITY"
|           FCJD |   Radial_Velocity |   Radial_Velocity_Uncertainty |
|         double |            double |                        double |
|           days |               m/s |                           m/s |
  2455610.028079           -4507.074                          64.877
  2455611.912025           -4249.326                          74.811
  2455613.935000           -4399.243                          71.329
  2455614.908067           -4537.135                          68.606
  2455615.907662           -4605.594                          59.100
  2455634.824826           -3617.708                          74.902
  2455634.865741           -3839.855                          66.826
  2455636.861586           -3751.606                          56.496
  2455636.902870           -3724.790                          59.586
  2455637.921146           -3624.191                          68.978
  2455638.894838           -3649.551                            -NaN
  2455641.814213           -3487.306                          73.645
  2455641.854838           -3564.899                          86.722
  2455643.839514           -3611.388                          72.329
  2455644.869352           -3771.260                          61.104
  2455645.868808           -3634.921                          65.142
  2455670.766111           -2394.198                          85.365
  2455672.766528           -2226.026                          82.488
  2455673.775741           -2327.432                          69.196
  2455674.805116           -2115.042                         107.282
  2455694.725926           -1256.799                          71.268
  2455695.721435           -1444.022                         114.101
  2455696.720162           -1215.744                         113.377
  2455697.737755           -1192.558                         136.931
  2455704.784201            -275.734                          92.636
  2455722.652222             914.967                          89.135
  2455722.688125             860.750                          81.459
  2455723.652512             929.173                          80.173
  2455759.654132            3940.114                         105.123
  2455937.014363           12053.451                          91.072
  2455937.971574           11739.274                          93.891
  2455938.958866                -NaN                            -NaN
  2455940.010833           11577.477                         131.452
  2455940.984664           11261.731                         132.210
  2455959.883970           10305.979                         101.311
  2456050.729583            2652.122                         112.933
  2456051.685463            2439.767                          80.383
  2456052.690961            2520.936                          77.135
  2456053.690486            2214.898                          72.522
  2456054.690845            2324.094                         110.677
  2456077.700822             767.571                          79.309
  2456078.634282             521.086                          86.047
