\STAR_ID                            = "2MASS J13441325+2633397"
\DATA_CATEGORY                      = "Planet Radial Velocity Curve"
\NUMBER_OF_POINTS                   = "42"
\TIME_REFERENCE_FRAME               = "FCJD"
\MINIMUM_DATE                       = "2455610.028079"
\DATE_UNITS                         = "days"
\MAXIMUM_DATE                       = "2456078.634282"
\MINIMUM_VALUE                      = "-323.468"
\VALUE_UNITS                        = "m/s"
\MAXIMUM_VALUE                      = "396.550"
\REFERENCE                          = "Thomas et al. 2016 (PASP, 128, 5003)"
\BIBCODE                            = "2016PASP..128d5003T"
\TELESCOPE                          = "2.5m Sloan Foundation Telescope"
\INSTRUMENT                         = "MARVELS"
\WAVELENGTH_CALIBRATION_TECHNIQUE   = "Tungsten Iodine Lamp"
\OBSERVATORY_SITE                   = "Apache Point Observatory, New Mexico"
\COLUMN_FCJD                        = "Flux Centered Julian Date of observation"
\COLUMN_RADIAL_VELOCITY             = "Radial velocity relative to barycenter"
\COLUMN_RADIAL_VELOCITY_UNCERTAINTY = "Uncertainty in RADIAL_VELOCITY"
|           FCJD |   Radial_Velocity |   Radial_Velocity_Uncertainty |
|         double |            double |                        double |
|           days |               m/s |                           m/s |
  2455610.028079              24.908                          86.462
  2455611.912025             396.550                          78.505
  2455613.935000             197.718                         113.289
  2455614.908067              93.672                          70.107
  2455615.907662              92.188                          67.321
  2455634.824826               1.651                          55.665
  2455634.865741             -69.101                          54.142
  2455636.861586             -66.073                          52.486
  2455636.902870              21.765                          69.117
  2455637.921146              65.609                          65.503
  2455638.894838               6.773                            -NaN
  2455641.814213             168.724                          67.174
  2455641.854838              21.082                          56.765
  2455643.839514              10.331                          59.672
  2455644.869352             -19.867                          64.452
  2455645.868808             -28.873                          62.216
  2455670.766111             -48.300                          80.581
  2455672.766528             -12.202                          55.381
  2455673.775741              91.609                          76.626
  2455674.805116              26.948                          79.293
  2455694.725926             -38.838                          72.481
  2455695.721435             -70.076                          87.967
  2455696.720162            -168.258                          71.709
  2455697.737755            -138.201                          86.194
  2455704.784201            -122.285                          77.638
  2455722.652222            -125.086                          73.748
  2455722.688125              -3.983                          68.683
  2455723.652512              11.221                          71.025
  2455759.654132             -60.066                          90.770
  2455937.014363             -16.314                          79.637
  2455937.971574             140.451                          76.461
  2455938.958866             164.755                          68.793
  2455940.010833             200.999                          96.893
  2455940.984664             150.248                          75.554
  2455959.883970              76.191                          93.100
  2456050.729583            -198.083                          58.200
  2456051.685463            -109.183                          64.241
  2456052.690961             -63.396                          67.639
  2456053.690486            -169.012                          63.991
  2456054.690845            -116.849                          64.928
  2456077.700822               4.121                          75.662
  2456078.634282            -323.468                          75.691
