\STAR_ID                            = "2MASS J13512751+2800129"
\DATA_CATEGORY                      = "Planet Radial Velocity Curve"
\NUMBER_OF_POINTS                   = "42"
\TIME_REFERENCE_FRAME               = "FCJD"
\MINIMUM_DATE                       = "2455610.028079"
\DATE_UNITS                         = "days"
\MAXIMUM_DATE                       = "2456078.634282"
\MINIMUM_VALUE                      = "-15466.734"
\VALUE_UNITS                        = "m/s"
\MAXIMUM_VALUE                      = "11744.685"
\REFERENCE                          = "Thomas et al. 2016 (PASP, 128, 5003)"
\BIBCODE                            = "2016PASP..128d5003T"
\TELESCOPE                          = "2.5m Sloan Foundation Telescope"
\INSTRUMENT                         = "MARVELS"
\WAVELENGTH_CALIBRATION_TECHNIQUE   = "Tungsten Iodine Lamp"
\OBSERVATORY_SITE                   = "Apache Point Observatory, New Mexico"
\COLUMN_FCJD                        = "Flux Centered Julian Date of observation"
\COLUMN_RADIAL_VELOCITY             = "Radial velocity relative to barycenter"
\COLUMN_RADIAL_VELOCITY_UNCERTAINTY = "Uncertainty in RADIAL_VELOCITY"
|           FCJD |   Radial_Velocity |   Radial_Velocity_Uncertainty |
|         double |            double |                        double |
|           days |               m/s |                           m/s |
  2455610.028079           10883.366                         104.487
  2455611.912025           10405.124                         148.496
  2455613.935000            9778.999                         185.562
  2455614.908067            9757.327                         134.740
  2455615.907662            8979.145                         137.958
  2455634.824826            1018.094                         180.062
  2455634.865741            1014.170                         127.217
  2455636.861586             -82.098                         133.564
  2455636.902870             -26.504                         156.671
  2455637.921146            -719.116                         151.826
  2455638.894838            -935.099                         166.626
  2455641.814213           -2633.859                          97.850
  2455641.854838           -2711.605                         219.009
  2455643.839514           -3435.302                         129.948
  2455644.869352           -3937.038                         148.054
  2455645.868808           -4456.506                         147.383
  2455670.766111          -14688.999                         127.956
  2455672.766528          -15224.225                         122.673
  2455673.775741          -15291.580                         131.770
  2455674.805116          -15444.646                         102.672
  2455694.725926          -15466.734                         136.373
  2455695.721435          -15194.988                         209.288
  2455696.720162          -14970.455                         123.313
  2455697.737755          -14511.289                         138.365
  2455704.784201          -11625.884                         223.163
  2455722.652222             273.271                            -NaN
  2455722.688125             323.769                         128.696
  2455723.652512             827.430                         120.417
  2455759.654132           11744.685                         163.448
  2455937.014363            4547.460                         138.852
  2455937.971574            3971.285                         152.329
  2455938.958866            3672.030                         147.700
  2455940.010833            3367.005                         122.833
  2455940.984664            2753.922                         121.116
  2455959.883970           -6163.283                         167.649
  2456050.729583           10319.510                         134.337
  2456051.685463           10647.342                         112.988
  2456052.690961           10779.367                         134.786
  2456053.690486           11066.579                         183.255
  2456054.690845           11443.523                         118.676
  2456077.700822           10030.724                         142.819
  2456078.634282            9915.084                         151.822
