\STAR_ID                            = "2MASS J13395184+2717343"
\DATA_CATEGORY                      = "Planet Radial Velocity Curve"
\NUMBER_OF_POINTS                   = "42"
\TIME_REFERENCE_FRAME               = "FCJD"
\MINIMUM_DATE                       = "2455610.028079"
\DATE_UNITS                         = "days"
\MAXIMUM_DATE                       = "2456078.634282"
\MINIMUM_VALUE                      = "-365.780"
\VALUE_UNITS                        = "m/s"
\MAXIMUM_VALUE                      = "307.953"
\REFERENCE                          = "Thomas et al. 2016 (PASP, 128, 5003)"
\BIBCODE                            = "2016PASP..128d5003T"
\TELESCOPE                          = "2.5m Sloan Foundation Telescope"
\INSTRUMENT                         = "MARVELS"
\WAVELENGTH_CALIBRATION_TECHNIQUE   = "Tungsten Iodine Lamp"
\OBSERVATORY_SITE                   = "Apache Point Observatory, New Mexico"
\COLUMN_FCJD                        = "Flux Centered Julian Date of observation"
\COLUMN_RADIAL_VELOCITY             = "Radial velocity relative to barycenter"
\COLUMN_RADIAL_VELOCITY_UNCERTAINTY = "Uncertainty in RADIAL_VELOCITY"
|           FCJD |   Radial_Velocity |   Radial_Velocity_Uncertainty |
|         double |            double |                        double |
|           days |               m/s |                           m/s |
  2455610.028079             126.077                          87.756
  2455611.912025            -148.192                          67.656
  2455613.935000              75.804                         146.031
  2455614.908067             307.953                         106.910
  2455615.907662             203.622                          98.916
  2455634.824826             101.341                            -NaN
  2455634.865741              34.219                          77.188
  2455636.861586              63.934                          70.681
  2455636.902870              75.068                          75.945
  2455637.921146              80.875                          86.217
  2455638.894838            -246.515                         121.202
  2455641.814213              17.823                         144.511
  2455641.854838             -56.130                          94.458
  2455643.839514            -116.785                         115.595
  2455644.869352            -185.678                          87.752
  2455645.868808            -148.732                          85.157
  2455670.766111             112.813                         113.145
  2455672.766528             102.364                          85.169
  2455673.775741             193.406                          96.650
  2455674.805116             239.434                         207.517
  2455694.725926              -8.700                         112.280
  2455695.721435            -210.929                         141.215
  2455696.720162             -65.146                         122.641
  2455697.737755              26.936                         151.580
  2455704.784201            -161.270                         159.826
  2455722.652222             -13.731                         119.773
  2455722.688125            -127.830                         121.387
  2455723.652512            -124.227                         106.111
  2455759.654132            -365.780                         174.959
  2455937.014363            -126.449                         126.499
  2455937.971574              53.326                          84.258
  2455938.958866             232.861                         146.113
  2455940.010833             249.158                         143.709
  2455940.984664             -55.745                         151.711
  2455959.883970              36.178                         100.814
  2456050.729583             -83.862                         130.007
  2456051.685463              74.305                          89.092
  2456052.690961             -25.779                         111.819
  2456053.690486              85.657                         185.454
  2456054.690845               3.582                         119.842
  2456077.700822            -125.551                         128.726
  2456078.634282             -99.709                         103.334
