\STAR_ID                            = "2MASS J13452188+2618556"
\DATA_CATEGORY                      = "Planet Radial Velocity Curve"
\NUMBER_OF_POINTS                   = "42"
\TIME_REFERENCE_FRAME               = "FCJD"
\MINIMUM_DATE                       = "2455610.028079"
\DATE_UNITS                         = "days"
\MAXIMUM_DATE                       = "2456078.634282"
\MINIMUM_VALUE                      = "-238.294"
\VALUE_UNITS                        = "m/s"
\MAXIMUM_VALUE                      = "369.831"
\REFERENCE                          = "Thomas et al. 2016 (PASP, 128, 5003)"
\BIBCODE                            = "2016PASP..128d5003T"
\TELESCOPE                          = "2.5m Sloan Foundation Telescope"
\INSTRUMENT                         = "MARVELS"
\WAVELENGTH_CALIBRATION_TECHNIQUE   = "Tungsten Iodine Lamp"
\OBSERVATORY_SITE                   = "Apache Point Observatory, New Mexico"
\COLUMN_FCJD                        = "Flux Centered Julian Date of observation"
\COLUMN_RADIAL_VELOCITY             = "Radial velocity relative to barycenter"
\COLUMN_RADIAL_VELOCITY_UNCERTAINTY = "Uncertainty in RADIAL_VELOCITY"
|           FCJD |   Radial_Velocity |   Radial_Velocity_Uncertainty |
|         double |            double |                        double |
|           days |               m/s |                           m/s |
  2455610.028079              72.501                          98.077
  2455611.912025             200.812                         125.192
  2455613.935000             -84.480                         118.388
  2455614.908067              64.900                          87.471
  2455615.907662             -73.559                         103.970
  2455634.824826            -112.746                          81.731
  2455634.865741            -119.173                          77.216
  2455636.861586              12.857                          87.392
  2455636.902870               5.045                         106.892
  2455637.921146               3.288                         118.877
  2455638.894838             -44.055                         102.557
  2455641.814213              99.291                         106.163
  2455641.854838             299.993                          77.169
  2455643.839514             129.481                         110.927
  2455644.869352             -93.448                          95.990
  2455645.868808              44.613                          92.269
  2455670.766111             -28.762                         160.895
  2455672.766528            -129.051                         107.530
  2455673.775741             -94.767                         107.012
  2455674.805116             176.703                         136.463
  2455694.725926            -187.416                          74.092
  2455695.721435             133.364                         128.317
  2455696.720162              35.554                         125.058
  2455697.737755             -23.517                         161.464
  2455704.784201            -122.114                         101.215
  2455722.652222             -22.610                          93.509
  2455722.688125            -144.106                          97.507
  2455723.652512            -177.335                          88.695
  2455759.654132            -158.596                         116.145
  2455937.014363            -181.640                          93.133
  2455937.971574             -57.987                          89.293
  2455938.958866             -26.674                         182.890
  2455940.010833            -238.294                         124.620
  2455940.984664              58.382                         175.818
  2455959.883970             -44.055                         121.590
  2456050.729583             369.831                          96.514
  2456051.685463             105.291                            -NaN
  2456052.690961             -14.643                          96.546
  2456053.690486             133.197                         107.156
  2456054.690845             244.780                         102.633
  2456077.700822              60.530                          96.833
  2456078.634282             -71.386                          85.523
