\STAR_ID                            = "2MASS J14100088+2810090"
\DATA_CATEGORY                      = "Planet Radial Velocity Curve"
\NUMBER_OF_POINTS                   = "35"
\TIME_REFERENCE_FRAME               = "FCJD"
\MINIMUM_DATE                       = "2455613.974352"
\DATE_UNITS                         = "days"
\MAXIMUM_DATE                       = "2456048.807477"
\MINIMUM_VALUE                      = "-424.964"
\VALUE_UNITS                        = "m/s"
\MAXIMUM_VALUE                      = "365.062"
\REFERENCE                          = "Thomas et al. 2016 (PASP, 128, 5003)"
\BIBCODE                            = "2016PASP..128d5003T"
\TELESCOPE                          = "2.5m Sloan Foundation Telescope"
\INSTRUMENT                         = "MARVELS"
\WAVELENGTH_CALIBRATION_TECHNIQUE   = "Tungsten Iodine Lamp"
\OBSERVATORY_SITE                   = "Apache Point Observatory, New Mexico"
\COLUMN_FCJD                        = "Flux Centered Julian Date of observation"
\COLUMN_RADIAL_VELOCITY             = "Radial velocity relative to barycenter"
\COLUMN_RADIAL_VELOCITY_UNCERTAINTY = "Uncertainty in RADIAL_VELOCITY"
|           FCJD |   Radial_Velocity |   Radial_Velocity_Uncertainty |
|         double |            double |                        double |
|           days |               m/s |                           m/s |
  2455613.974352            -128.443                         106.369
  2455614.949688            -138.624                          98.391
  2455615.949375            -118.071                         189.494
  2455635.872095             -44.233                         115.964
  2455636.946285              85.407                          75.391
  2455636.987257             -35.873                         129.571
  2455637.961215             -45.508                         144.920
  2455638.936354              -7.036                         113.974
  2455638.976609             206.029                          99.250
  2455639.964884             207.428                          80.099
  2455640.941157             167.307                          92.486
  2455641.940532             365.062                         130.044
  2455643.927801              77.570                         111.184
  2455644.959792              86.851                         138.071
  2455645.953368              87.969                          91.130
  2455667.878391              -6.086                          90.012
  2455668.890775             -55.960                          81.865
  2455669.907975             153.017                          86.234
  2455672.893137              21.452                         170.776
  2455673.911736             -77.568                          98.304
  2455674.917778                -NaN                            -NaN
  2455693.760787             -52.706                         114.574
  2455694.768414              29.500                          96.397
  2455695.763796              44.574                         160.890
  2455696.762361              97.146                         138.511
  2455697.780463             115.750                         116.459
  2455724.696829            -167.412                         106.421
  2455726.693183            -424.964                         127.500
  2455727.684653             -51.312                         110.155
  2455935.001134              33.855                         131.037
  2455939.012581             -75.148                          72.791
  2455968.932731               9.837                          76.730
  2456024.850671             131.635                            -NaN
  2456029.829664            -297.994                          96.871
  2456048.807477            -193.453                         141.797
