\STAR_ID                            = "2MASS J13395343+2820548"
\DATA_CATEGORY                      = "Planet Radial Velocity Curve"
\NUMBER_OF_POINTS                   = "42"
\TIME_REFERENCE_FRAME               = "FCJD"
\MINIMUM_DATE                       = "2455610.028079"
\DATE_UNITS                         = "days"
\MAXIMUM_DATE                       = "2456078.634282"
\MINIMUM_VALUE                      = "-111.199"
\VALUE_UNITS                        = "m/s"
\MAXIMUM_VALUE                      = "97.214"
\REFERENCE                          = "Thomas et al. 2016 (PASP, 128, 5003)"
\BIBCODE                            = "2016PASP..128d5003T"
\TELESCOPE                          = "2.5m Sloan Foundation Telescope"
\INSTRUMENT                         = "MARVELS"
\WAVELENGTH_CALIBRATION_TECHNIQUE   = "Tungsten Iodine Lamp"
\OBSERVATORY_SITE                   = "Apache Point Observatory, New Mexico"
\COLUMN_FCJD                        = "Flux Centered Julian Date of observation"
\COLUMN_RADIAL_VELOCITY             = "Radial velocity relative to barycenter"
\COLUMN_RADIAL_VELOCITY_UNCERTAINTY = "Uncertainty in RADIAL_VELOCITY"
|           FCJD |   Radial_Velocity |   Radial_Velocity_Uncertainty |
|         double |            double |                        double |
|           days |               m/s |                           m/s |
  2455610.028079             -51.933                          34.110
  2455611.912025              -3.097                          32.194
  2455613.935000             -14.846                          30.983
  2455614.908067             -37.955                          29.081
  2455615.907662             -20.138                          25.239
  2455634.824826             -32.744                          26.273
  2455634.865741             -20.144                          21.966
  2455636.861586               7.387                          20.029
  2455636.902870               1.266                          20.253
  2455637.921146             -42.859                          19.740
  2455638.894838               6.163                          24.915
  2455641.814213              11.871                          28.865
  2455641.854838              13.826                          24.177
  2455643.839514              29.171                          26.843
  2455644.869352               0.905                          26.548
  2455645.868808              21.267                          35.482
  2455670.766111              26.439                          31.095
  2455672.766528              22.216                          19.542
  2455673.775741              43.664                          20.492
  2455674.805116              63.053                          20.899
  2455694.725926              11.006                          23.703
  2455695.721435              64.306                          30.578
  2455696.720162              41.479                          27.484
  2455697.737755              66.213                          30.243
  2455704.784201              37.752                          33.776
  2455722.652222               8.749                          28.180
  2455722.688125              41.766                          24.510
  2455723.652512               9.152                          28.512
  2455759.654132              -3.996                          26.499
  2455937.014363             -63.123                          26.900
  2455937.971574             -33.855                          27.672
  2455938.958866             -76.858                          26.288
  2455940.010833             -29.123                          29.531
  2455940.984664             -18.646                          32.800
  2455959.883970               0.824                          35.670
  2456050.729583              97.214                          31.126
  2456051.685463              10.077                            -NaN
  2456052.690961              15.116                          14.610
  2456053.690486              -5.015                          26.691
  2456054.690845             -39.558                          36.026
  2456077.700822             -45.791                          33.601
  2456078.634282            -111.199                          34.985
