\STAR_ID                            = "2MASS J13491258+2702318"
\DATA_CATEGORY                      = "Planet Radial Velocity Curve"
\NUMBER_OF_POINTS                   = "42"
\TIME_REFERENCE_FRAME               = "FCJD"
\MINIMUM_DATE                       = "2455610.028079"
\DATE_UNITS                         = "days"
\MAXIMUM_DATE                       = "2456078.634282"
\MINIMUM_VALUE                      = "-352.338"
\VALUE_UNITS                        = "m/s"
\MAXIMUM_VALUE                      = "495.932"
\REFERENCE                          = "Thomas et al. 2016 (PASP, 128, 5003)"
\BIBCODE                            = "2016PASP..128d5003T"
\TELESCOPE                          = "2.5m Sloan Foundation Telescope"
\INSTRUMENT                         = "MARVELS"
\WAVELENGTH_CALIBRATION_TECHNIQUE   = "Tungsten Iodine Lamp"
\OBSERVATORY_SITE                   = "Apache Point Observatory, New Mexico"
\COLUMN_FCJD                        = "Flux Centered Julian Date of observation"
\COLUMN_RADIAL_VELOCITY             = "Radial velocity relative to barycenter"
\COLUMN_RADIAL_VELOCITY_UNCERTAINTY = "Uncertainty in RADIAL_VELOCITY"
|           FCJD |   Radial_Velocity |   Radial_Velocity_Uncertainty |
|         double |            double |                        double |
|           days |               m/s |                           m/s |
  2455610.028079            -207.654                         125.093
  2455611.912025             214.084                         171.698
  2455613.935000              11.012                         156.946
  2455614.908067             -16.861                         149.275
  2455615.907662              31.859                         101.792
  2455634.824826            -199.493                         118.782
  2455634.865741             -46.941                          94.696
  2455636.861586             -58.823                         100.014
  2455636.902870            -122.053                          84.758
  2455637.921146             -61.315                          98.485
  2455638.894838              21.088                         109.806
  2455641.814213             -20.850                         116.277
  2455641.854838              -0.148                         101.590
  2455643.839514             -51.729                         115.797
  2455644.869352            -136.711                         109.723
  2455645.868808              57.499                         111.364
  2455670.766111             149.453                         103.457
  2455672.766528             -31.790                         106.002
  2455673.775741             -51.485                          63.415
  2455674.805116             -18.166                         120.287
  2455694.725926            -140.123                            -NaN
  2455695.721435             332.863                         145.990
  2455696.720162             224.435                         118.735
  2455697.737755             261.528                          86.276
  2455704.784201            -199.046                          88.077
  2455722.652222             -55.519                          89.178
  2455722.688125              58.378                          85.468
  2455723.652512              13.884                          79.558
  2455759.654132            -134.229                          99.694
  2455937.014363            -222.074                         105.392
  2455937.971574            -226.148                         151.684
  2455938.958866            -352.338                         197.566
  2455940.010833             -60.496                         142.059
  2455940.984664             -63.534                         159.280
  2455959.883970             -71.831                         138.634
  2456050.729583             209.877                         106.903
  2456051.685463              -5.144                          97.240
  2456052.690961              56.446                          74.403
  2456053.690486             191.525                         107.748
  2456054.690845             104.802                          93.726
  2456077.700822             119.833                          89.124
  2456078.634282             495.932                          96.588
