\STAR_ID                            = "2MASS J13452416+2627446"
\DATA_CATEGORY                      = "Planet Radial Velocity Curve"
\NUMBER_OF_POINTS                   = "42"
\TIME_REFERENCE_FRAME               = "FCJD"
\MINIMUM_DATE                       = "2455610.028079"
\DATE_UNITS                         = "days"
\MAXIMUM_DATE                       = "2456078.634282"
\MINIMUM_VALUE                      = "-274.428"
\VALUE_UNITS                        = "m/s"
\MAXIMUM_VALUE                      = "212.487"
\REFERENCE                          = "Thomas et al. 2016 (PASP, 128, 5003)"
\BIBCODE                            = "2016PASP..128d5003T"
\TELESCOPE                          = "2.5m Sloan Foundation Telescope"
\INSTRUMENT                         = "MARVELS"
\WAVELENGTH_CALIBRATION_TECHNIQUE   = "Tungsten Iodine Lamp"
\OBSERVATORY_SITE                   = "Apache Point Observatory, New Mexico"
\COLUMN_FCJD                        = "Flux Centered Julian Date of observation"
\COLUMN_RADIAL_VELOCITY             = "Radial velocity relative to barycenter"
\COLUMN_RADIAL_VELOCITY_UNCERTAINTY = "Uncertainty in RADIAL_VELOCITY"
|           FCJD |   Radial_Velocity |   Radial_Velocity_Uncertainty |
|         double |            double |                        double |
|           days |               m/s |                           m/s |
  2455610.028079              85.029                          67.259
  2455611.912025             212.487                          59.860
  2455613.935000              58.735                          65.534
  2455614.908067              38.393                          71.643
  2455615.907662              34.311                          73.522
  2455634.824826              23.124                          59.281
  2455634.865741              59.484                          57.323
  2455636.861586              95.958                          43.378
  2455636.902870              15.781                          51.571
  2455637.921146             108.126                          42.486
  2455638.894838             137.728                            -NaN
  2455641.814213             145.157                          56.944
  2455641.854838              99.329                          45.090
  2455643.839514             -29.376                          50.845
  2455644.869352              -2.912                          69.651
  2455645.868808              51.498                          55.195
  2455670.766111             -25.390                          59.301
  2455672.766528               5.733                          60.482
  2455673.775741              30.186                          53.390
  2455674.805116              26.011                          56.904
  2455694.725926              41.110                          57.166
  2455695.721435               4.838                          60.545
  2455696.720162             -31.559                          57.068
  2455697.737755            -108.160                          80.602
  2455704.784201              49.883                          47.321
  2455722.652222             -83.162                          45.755
  2455722.688125             -68.572                          52.421
  2455723.652512             -78.065                          51.394
  2455759.654132             -98.136                          63.188
  2455937.014363             -27.552                          74.539
  2455937.971574              22.155                          49.638
  2455938.958866             114.921                          66.822
  2455940.010833              58.859                          73.803
  2455940.984664             149.503                          79.947
  2455959.883970             -17.803                          64.608
  2456050.729583            -244.517                          67.389
  2456051.685463            -154.757                          68.125
  2456052.690961            -129.204                          45.582
  2456053.690486            -145.215                          42.887
  2456054.690845            -274.428                          49.576
  2456077.700822             -17.686                          45.587
  2456078.634282            -131.845                          57.237
