\STAR_ID                            = "2MASS J13463589+2716199"
\DATA_CATEGORY                      = "Planet Radial Velocity Curve"
\NUMBER_OF_POINTS                   = "42"
\TIME_REFERENCE_FRAME               = "FCJD"
\MINIMUM_DATE                       = "2455610.028079"
\DATE_UNITS                         = "days"
\MAXIMUM_DATE                       = "2456078.634282"
\MINIMUM_VALUE                      = "-330.898"
\VALUE_UNITS                        = "m/s"
\MAXIMUM_VALUE                      = "253.269"
\REFERENCE                          = "Thomas et al. 2016 (PASP, 128, 5003)"
\BIBCODE                            = "2016PASP..128d5003T"
\TELESCOPE                          = "2.5m Sloan Foundation Telescope"
\INSTRUMENT                         = "MARVELS"
\WAVELENGTH_CALIBRATION_TECHNIQUE   = "Tungsten Iodine Lamp"
\OBSERVATORY_SITE                   = "Apache Point Observatory, New Mexico"
\COLUMN_FCJD                        = "Flux Centered Julian Date of observation"
\COLUMN_RADIAL_VELOCITY             = "Radial velocity relative to barycenter"
\COLUMN_RADIAL_VELOCITY_UNCERTAINTY = "Uncertainty in RADIAL_VELOCITY"
|           FCJD |   Radial_Velocity |   Radial_Velocity_Uncertainty |
|         double |            double |                        double |
|           days |               m/s |                           m/s |
  2455610.028079             156.768                          62.681
  2455611.912025             232.594                          65.197
  2455613.935000             253.269                          64.267
  2455614.908067              61.061                          60.596
  2455615.907662             154.538                          49.973
  2455634.824826             102.483                          67.008
  2455634.865741              22.676                          50.452
  2455636.861586             133.332                          64.170
  2455636.902870             144.748                          43.266
  2455637.921146              62.618                          47.838
  2455638.894838             168.015                            -NaN
  2455641.814213             110.645                          55.525
  2455641.854838              58.632                          53.709
  2455643.839514              30.143                          44.184
  2455644.869352               8.182                          53.407
  2455645.868808              74.689                          66.602
  2455670.766111              54.210                          67.361
  2455672.766528              46.324                          50.227
  2455673.775741             135.897                          51.631
  2455674.805116              62.760                          61.068
  2455694.725926              60.452                          55.619
  2455695.721435              23.389                          68.847
  2455696.720162             -38.473                          59.733
  2455697.737755             -16.270                          66.830
  2455704.784201              20.674                          55.302
  2455722.652222             -98.272                          61.279
  2455722.688125            -120.000                          46.923
  2455723.652512             -49.017                          47.007
  2455759.654132            -226.253                          66.282
  2455937.014363            -150.887                          63.388
  2455937.971574             -84.512                          59.412
  2455938.958866             -14.501                          74.661
  2455940.010833             -18.481                          77.285
  2455940.984664             156.698                         100.591
  2455959.883970            -122.119                          60.570
  2456050.729583            -207.771                          66.761
  2456051.685463            -118.014                          59.112
  2456052.690961            -193.144                          67.068
  2456053.690486            -153.320                          51.205
  2456054.690845            -228.280                          59.595
  2456077.700822            -164.586                          50.560
  2456078.634282            -330.898                          53.557
