\STAR_ID                            = "2MASS J13511205+2707436"
\DATA_CATEGORY                      = "Planet Radial Velocity Curve"
\NUMBER_OF_POINTS                   = "42"
\TIME_REFERENCE_FRAME               = "FCJD"
\MINIMUM_DATE                       = "2455610.028079"
\DATE_UNITS                         = "days"
\MAXIMUM_DATE                       = "2456078.634282"
\MINIMUM_VALUE                      = "-395.462"
\VALUE_UNITS                        = "m/s"
\MAXIMUM_VALUE                      = "201.792"
\REFERENCE                          = "Thomas et al. 2016 (PASP, 128, 5003)"
\BIBCODE                            = "2016PASP..128d5003T"
\TELESCOPE                          = "2.5m Sloan Foundation Telescope"
\INSTRUMENT                         = "MARVELS"
\WAVELENGTH_CALIBRATION_TECHNIQUE   = "Tungsten Iodine Lamp"
\OBSERVATORY_SITE                   = "Apache Point Observatory, New Mexico"
\COLUMN_FCJD                        = "Flux Centered Julian Date of observation"
\COLUMN_RADIAL_VELOCITY             = "Radial velocity relative to barycenter"
\COLUMN_RADIAL_VELOCITY_UNCERTAINTY = "Uncertainty in RADIAL_VELOCITY"
|           FCJD |   Radial_Velocity |   Radial_Velocity_Uncertainty |
|         double |            double |                        double |
|           days |               m/s |                           m/s |
  2455610.028079             131.070                          15.407
  2455611.912025             161.441                          16.291
  2455613.935000             128.215                          21.820
  2455614.908067             124.162                          19.616
  2455615.907662             127.071                          18.281
  2455634.824826              75.673                          13.230
  2455634.865741              97.138                          14.852
  2455636.861586             142.630                          14.545
  2455636.902870             136.980                          10.891
  2455637.921146             108.165                          11.328
  2455638.894838             127.581                            -NaN
  2455641.814213             117.340                          11.095
  2455641.854838             122.800                          12.769
  2455643.839514             128.760                          13.748
  2455644.869352              92.863                          13.873
  2455645.868808             116.827                          13.423
  2455670.766111             201.792                          22.148
  2455672.766528             153.626                          19.331
  2455673.775741             172.038                          19.615
  2455674.805116             173.962                          22.500
  2455694.725926             146.927                          12.968
  2455695.721435             150.173                          16.300
  2455696.720162             146.301                          16.519
  2455697.737755             136.167                          16.434
  2455704.784201             129.778                          17.725
  2455722.652222             120.098                          21.103
  2455722.688125             126.972                          24.542
  2455723.652512              85.310                          20.390
  2455759.654132             123.005                          33.148
  2455937.014363            -226.185                          23.670
  2455937.971574            -186.774                          14.338
  2455938.958866            -215.409                          18.604
  2455940.010833            -120.121                          21.253
  2455940.984664            -104.233                          20.421
  2455959.883970            -290.517                          19.665
  2456050.729583            -374.666                          18.483
  2456051.685463            -394.619                          18.833
  2456052.690961            -387.258                          18.230
  2456053.690486            -385.905                          19.749
  2456054.690845            -349.681                          20.414
  2456077.700822            -374.039                          17.489
  2456078.634282            -395.462                          18.085
