\STAR_ID                            = "2MASS J13443187+2800039"
\DATA_CATEGORY                      = "Planet Radial Velocity Curve"
\NUMBER_OF_POINTS                   = "42"
\TIME_REFERENCE_FRAME               = "FCJD"
\MINIMUM_DATE                       = "2455610.028079"
\DATE_UNITS                         = "days"
\MAXIMUM_DATE                       = "2456078.634282"
\MINIMUM_VALUE                      = "-165.578"
\VALUE_UNITS                        = "m/s"
\MAXIMUM_VALUE                      = "230.113"
\REFERENCE                          = "Thomas et al. 2016 (PASP, 128, 5003)"
\BIBCODE                            = "2016PASP..128d5003T"
\TELESCOPE                          = "2.5m Sloan Foundation Telescope"
\INSTRUMENT                         = "MARVELS"
\WAVELENGTH_CALIBRATION_TECHNIQUE   = "Tungsten Iodine Lamp"
\OBSERVATORY_SITE                   = "Apache Point Observatory, New Mexico"
\COLUMN_FCJD                        = "Flux Centered Julian Date of observation"
\COLUMN_RADIAL_VELOCITY             = "Radial velocity relative to barycenter"
\COLUMN_RADIAL_VELOCITY_UNCERTAINTY = "Uncertainty in RADIAL_VELOCITY"
|           FCJD |   Radial_Velocity |   Radial_Velocity_Uncertainty |
|         double |            double |                        double |
|           days |               m/s |                           m/s |
  2455610.028079             -85.116                         116.333
  2455611.912025             -12.295                          91.704
  2455613.935000              42.843                          80.084
  2455614.908067              32.115                          91.263
  2455615.907662             -75.877                          86.800
  2455634.824826             -77.949                          87.562
  2455634.865741             -12.385                          72.260
  2455636.861586              72.198                          78.727
  2455636.902870            -108.277                          72.440
  2455637.921146             -22.029                          82.164
  2455638.894838            -165.578                          87.471
  2455641.814213              72.327                          72.769
  2455641.854838             -28.278                          76.299
  2455643.839514             -29.695                          85.471
  2455644.869352             -42.184                          76.953
  2455645.868808              31.374                          86.079
  2455670.766111              51.792                          86.600
  2455672.766528             -70.605                         113.276
  2455673.775741              34.036                          87.034
  2455674.805116             -38.796                          70.102
  2455694.725926             -13.063                          82.595
  2455695.721435             150.941                         110.330
  2455696.720162              82.102                          80.078
  2455697.737755              90.545                         106.220
  2455704.784201              24.574                          79.452
  2455722.652222             -72.122                          79.021
  2455722.688125             -37.358                          90.352
  2455723.652512             -83.405                          71.056
  2455759.654132                -NaN                            -NaN
  2455937.014363             -25.897                         109.388
  2455937.971574             -21.879                          89.766
  2455938.958866             -87.781                         101.822
  2455940.010833             -54.251                          89.944
  2455940.984664            -123.458                          94.240
  2455959.883970             -17.880                          78.846
  2456050.729583             230.113                          67.264
  2456051.685463             -16.671                            -NaN
  2456052.690961              77.015                          71.972
  2456053.690486             100.558                          76.617
  2456054.690845              75.511                          78.086
  2456077.700822             -17.056                          92.842
  2456078.634282             171.843                          73.749
