\STAR_ID                            = "2MASS J13511533+2740427"
\DATA_CATEGORY                      = "Planet Radial Velocity Curve"
\NUMBER_OF_POINTS                   = "42"
\TIME_REFERENCE_FRAME               = "FCJD"
\MINIMUM_DATE                       = "2455610.028079"
\DATE_UNITS                         = "days"
\MAXIMUM_DATE                       = "2456078.634282"
\MINIMUM_VALUE                      = "-342.573"
\VALUE_UNITS                        = "m/s"
\MAXIMUM_VALUE                      = "858.733"
\REFERENCE                          = "Thomas et al. 2016 (PASP, 128, 5003)"
\BIBCODE                            = "2016PASP..128d5003T"
\TELESCOPE                          = "2.5m Sloan Foundation Telescope"
\INSTRUMENT                         = "MARVELS"
\WAVELENGTH_CALIBRATION_TECHNIQUE   = "Tungsten Iodine Lamp"
\OBSERVATORY_SITE                   = "Apache Point Observatory, New Mexico"
\COLUMN_FCJD                        = "Flux Centered Julian Date of observation"
\COLUMN_RADIAL_VELOCITY             = "Radial velocity relative to barycenter"
\COLUMN_RADIAL_VELOCITY_UNCERTAINTY = "Uncertainty in RADIAL_VELOCITY"
|           FCJD |   Radial_Velocity |   Radial_Velocity_Uncertainty |
|         double |            double |                        double |
|           days |               m/s |                           m/s |
  2455610.028079             140.667                         120.648
  2455611.912025             858.733                         120.976
  2455613.935000             100.517                         131.524
  2455614.908067              84.618                         119.980
  2455615.907662             152.412                         115.415
  2455634.824826              85.193                          99.999
  2455634.865741             103.705                         116.906
  2455636.861586             175.647                          89.872
  2455636.902870            -153.071                         130.769
  2455637.921146              63.152                         114.479
  2455638.894838              88.917                         114.970
  2455641.814213             141.579                         110.295
  2455641.854838             201.574                         103.501
  2455643.839514              49.651                         123.181
  2455644.869352               6.939                         108.273
  2455645.868808              80.380                         131.268
  2455670.766111             -72.166                         144.219
  2455672.766528            -141.310                          98.961
  2455673.775741             102.672                         114.174
  2455674.805116            -179.951                         151.895
  2455694.725926             -87.251                          91.371
  2455695.721435            -119.238                         145.615
  2455696.720162            -283.231                         156.079
  2455697.737755            -132.902                         142.784
  2455704.784201             -47.116                         121.233
  2455722.652222             -43.882                            -NaN
  2455722.688125             -22.020                          83.311
  2455723.652512            -229.918                          86.306
  2455759.654132            -216.248                          79.965
  2455937.014363             204.476                          92.176
  2455937.971574              74.126                         105.785
  2455938.958866             142.389                         121.059
  2455940.010833             144.656                         115.063
  2455940.984664              46.100                         137.161
  2455959.883970              44.805                         120.130
  2456050.729583            -199.331                         160.992
  2456051.685463             -63.680                         100.528
  2456052.690961            -114.002                         113.677
  2456053.690486            -173.126                         113.768
  2456054.690845            -321.850                         149.762
  2456077.700822            -150.044                          94.709
  2456078.634282            -342.573                         114.753
