\STAR_ID                            = "TYC 2004-00039-1"
\DATA_CATEGORY                      = "Planet Radial Velocity Curve"
\NUMBER_OF_POINTS                   = "42"
\TIME_REFERENCE_FRAME               = "FCJD"
\MINIMUM_DATE                       = "2455610.028079"
\DATE_UNITS                         = "days"
\MAXIMUM_DATE                       = "2456078.634282"
\MINIMUM_VALUE                      = "-52.262"
\VALUE_UNITS                        = "m/s"
\MAXIMUM_VALUE                      = "57.458"
\REFERENCE                          = "Thomas et al. 2016 (PASP, 128, 5003)"
\BIBCODE                            = "2016PASP..128d5003T"
\TELESCOPE                          = "2.5m Sloan Foundation Telescope"
\INSTRUMENT                         = "MARVELS"
\WAVELENGTH_CALIBRATION_TECHNIQUE   = "Tungsten Iodine Lamp"
\OBSERVATORY_SITE                   = "Apache Point Observatory, New Mexico"
\COLUMN_FCJD                        = "Flux Centered Julian Date of observation"
\COLUMN_RADIAL_VELOCITY             = "Radial velocity relative to barycenter"
\COLUMN_RADIAL_VELOCITY_UNCERTAINTY = "Uncertainty in RADIAL_VELOCITY"
|           FCJD |   Radial_Velocity |   Radial_Velocity_Uncertainty |
|         double |            double |                        double |
|           days |               m/s |                           m/s |
  2455610.028079             -25.050                          17.903
  2455611.912025             -48.971                          18.050
  2455613.935000             -25.096                          20.273
  2455614.908067             -26.419                          17.254
  2455615.907662             -23.404                          19.314
  2455634.824826              -3.647                          18.262
  2455634.865741              14.913                          16.806
  2455636.861586             -52.262                          17.932
  2455636.902870             -47.225                          18.059
  2455637.921146               3.047                          17.719
  2455638.894838             -18.598                          18.792
  2455641.814213              16.388                          20.817
  2455641.854838               2.930                          19.415
  2455643.839514             -23.181                          19.564
  2455644.869352             -27.139                          24.206
  2455645.868808               8.490                          19.390
  2455670.766111              -0.772                          13.532
  2455672.766528               5.610                          15.721
  2455673.775741              -8.421                          18.108
  2455674.805116              22.752                          19.376
  2455694.725926             -18.328                          15.492
  2455695.721435              -1.258                          19.365
  2455696.720162              18.624                          19.713
  2455697.737755              12.606                          18.870
  2455704.784201               2.597                          19.750
  2455722.652222              23.839                          15.621
  2455722.688125              -9.712                          17.694
  2455723.652512               6.874                          21.271
  2455759.654132             -25.213                          18.829
  2455937.014363              -8.067                          24.713
  2455937.971574              -1.499                          19.764
  2455938.958866              17.063                          25.675
  2455940.010833              -5.314                          20.309
  2455940.984664              16.458                          23.960
  2455959.883970               3.752                          22.564
  2456050.729583              31.563                          14.163
  2456051.685463               1.230                            -NaN
  2456052.690961              30.766                          13.535
  2456053.690486              16.970                          13.894
  2456054.690845              50.975                          16.630
  2456077.700822              34.673                          17.014
  2456078.634282              57.458                          16.020
