\STAR_ID                            = "2MASS J13502070+2744481"
\DATA_CATEGORY                      = "Planet Radial Velocity Curve"
\NUMBER_OF_POINTS                   = "42"
\TIME_REFERENCE_FRAME               = "FCJD"
\MINIMUM_DATE                       = "2455610.028079"
\DATE_UNITS                         = "days"
\MAXIMUM_DATE                       = "2456078.634282"
\MINIMUM_VALUE                      = "-267.416"
\VALUE_UNITS                        = "m/s"
\MAXIMUM_VALUE                      = "596.018"
\REFERENCE                          = "Thomas et al. 2016 (PASP, 128, 5003)"
\BIBCODE                            = "2016PASP..128d5003T"
\TELESCOPE                          = "2.5m Sloan Foundation Telescope"
\INSTRUMENT                         = "MARVELS"
\WAVELENGTH_CALIBRATION_TECHNIQUE   = "Tungsten Iodine Lamp"
\OBSERVATORY_SITE                   = "Apache Point Observatory, New Mexico"
\COLUMN_FCJD                        = "Flux Centered Julian Date of observation"
\COLUMN_RADIAL_VELOCITY             = "Radial velocity relative to barycenter"
\COLUMN_RADIAL_VELOCITY_UNCERTAINTY = "Uncertainty in RADIAL_VELOCITY"
|           FCJD |   Radial_Velocity |   Radial_Velocity_Uncertainty |
|         double |            double |                        double |
|           days |               m/s |                           m/s |
  2455610.028079            -162.255                         112.771
  2455611.912025             168.458                         152.918
  2455613.935000             -17.998                         114.183
  2455614.908067            -139.756                          88.896
  2455615.907662            -267.416                         101.515
  2455634.824826            -170.125                         140.110
  2455634.865741             -20.171                         110.025
  2455636.861586             -19.412                          95.651
  2455636.902870             -21.820                          81.254
  2455637.921146              21.996                         115.236
  2455638.894838               2.598                          93.358
  2455641.814213              91.408                         129.360
  2455641.854838             -34.920                         104.125
  2455643.839514             -69.258                          73.635
  2455644.869352             -67.713                          98.444
  2455645.868808             161.355                         116.313
  2455670.766111              71.945                         108.115
  2455672.766528            -121.980                         111.096
  2455673.775741               2.452                         145.909
  2455674.805116              10.941                         129.032
  2455694.725926             -54.461                          85.032
  2455695.721435             -57.798                         131.368
  2455696.720162              53.761                         153.694
  2455697.737755             250.919                         134.772
  2455704.784201             -92.094                          91.298
  2455722.652222            -133.851                            -NaN
  2455722.688125            -151.192                          73.310
  2455723.652512            -126.258                          80.417
  2455759.654132            -158.160                         137.529
  2455937.014363              -5.138                         135.664
  2455937.971574             132.455                         104.461
  2455938.958866              60.818                         105.566
  2455940.010833            -112.632                          98.245
  2455940.984664             102.879                         134.887
  2455959.883970            -220.441                         109.031
  2456050.729583             596.018                         116.785
  2456051.685463              31.209                          91.607
  2456052.690961              97.935                         104.488
  2456053.690486             140.479                         129.063
  2456054.690845             174.708                         119.650
  2456077.700822             -93.875                         102.228
  2456078.634282             146.387                         132.299
