\STAR_ID                            = "2MASS J13483319+2851472"
\DATA_CATEGORY                      = "Planet Radial Velocity Curve"
\NUMBER_OF_POINTS                   = "42"
\TIME_REFERENCE_FRAME               = "FCJD"
\MINIMUM_DATE                       = "2455610.028079"
\DATE_UNITS                         = "days"
\MAXIMUM_DATE                       = "2456078.634282"
\MINIMUM_VALUE                      = "-367.252"
\VALUE_UNITS                        = "m/s"
\MAXIMUM_VALUE                      = "354.612"
\REFERENCE                          = "Thomas et al. 2016 (PASP, 128, 5003)"
\BIBCODE                            = "2016PASP..128d5003T"
\TELESCOPE                          = "2.5m Sloan Foundation Telescope"
\INSTRUMENT                         = "MARVELS"
\WAVELENGTH_CALIBRATION_TECHNIQUE   = "Tungsten Iodine Lamp"
\OBSERVATORY_SITE                   = "Apache Point Observatory, New Mexico"
\COLUMN_FCJD                        = "Flux Centered Julian Date of observation"
\COLUMN_RADIAL_VELOCITY             = "Radial velocity relative to barycenter"
\COLUMN_RADIAL_VELOCITY_UNCERTAINTY = "Uncertainty in RADIAL_VELOCITY"
|           FCJD |   Radial_Velocity |   Radial_Velocity_Uncertainty |
|         double |            double |                        double |
|           days |               m/s |                           m/s |
  2455610.028079             -22.464                         103.033
  2455611.912025             354.612                         108.998
  2455613.935000             216.802                         119.544
  2455614.908067              28.585                         112.217
  2455615.907662              39.184                          88.570
  2455634.824826              52.530                          87.426
  2455634.865741              71.777                          96.862
  2455636.861586             -54.959                          70.408
  2455636.902870             -27.046                          66.692
  2455637.921146              28.265                          94.175
  2455638.894838              15.934                          89.479
  2455641.814213                -NaN                            -NaN
  2455641.854838                -NaN                            -NaN
  2455643.839514              28.372                          77.190
  2455644.869352              -8.669                            -NaN
  2455645.868808             -15.679                          88.744
  2455670.766111              21.550                         120.418
  2455672.766528            -268.162                          92.359
  2455673.775741              14.787                          91.035
  2455674.805116              45.446                          96.842
  2455694.725926              20.253                          95.224
  2455695.721435             -72.432                         113.521
  2455696.720162            -167.100                         136.816
  2455697.737755             -72.985                         110.469
  2455704.784201              43.396                         108.721
  2455722.652222              69.500                          88.172
  2455722.688125             -74.982                          70.421
  2455723.652512               0.835                          92.641
  2455759.654132             -22.535                         100.669
  2455937.014363              55.649                          83.479
  2455937.971574              81.871                         102.136
  2455938.958866             249.279                         103.188
  2455940.010833             140.704                          82.644
  2455940.984664              -8.012                          84.623
  2455959.883970            -116.656                          59.940
  2456050.729583            -175.935                         101.991
  2456051.685463             -57.914                          96.758
  2456052.690961              71.740                          81.153
  2456053.690486              35.436                          82.464
  2456054.690845             -62.135                         105.606
  2456077.700822             -91.586                          80.340
  2456078.634282            -367.252                          83.528
