\STAR_ID                            = "2MASS J13444175+2627521"
\DATA_CATEGORY                      = "Planet Radial Velocity Curve"
\NUMBER_OF_POINTS                   = "42"
\TIME_REFERENCE_FRAME               = "FCJD"
\MINIMUM_DATE                       = "2455610.028079"
\DATE_UNITS                         = "days"
\MAXIMUM_DATE                       = "2456078.634282"
\MINIMUM_VALUE                      = "-484.557"
\VALUE_UNITS                        = "m/s"
\MAXIMUM_VALUE                      = "960.281"
\REFERENCE                          = "Thomas et al. 2016 (PASP, 128, 5003)"
\BIBCODE                            = "2016PASP..128d5003T"
\TELESCOPE                          = "2.5m Sloan Foundation Telescope"
\INSTRUMENT                         = "MARVELS"
\WAVELENGTH_CALIBRATION_TECHNIQUE   = "Tungsten Iodine Lamp"
\OBSERVATORY_SITE                   = "Apache Point Observatory, New Mexico"
\COLUMN_FCJD                        = "Flux Centered Julian Date of observation"
\COLUMN_RADIAL_VELOCITY             = "Radial velocity relative to barycenter"
\COLUMN_RADIAL_VELOCITY_UNCERTAINTY = "Uncertainty in RADIAL_VELOCITY"
|           FCJD |   Radial_Velocity |   Radial_Velocity_Uncertainty |
|         double |            double |                        double |
|           days |               m/s |                           m/s |
  2455610.028079            -252.828                          71.637
  2455611.912025              81.934                          57.905
  2455613.935000            -286.241                          61.262
  2455614.908067            -300.237                          50.713
  2455615.907662            -363.360                          60.530
  2455634.824826            -447.747                          53.215
  2455634.865741            -391.825                          49.729
  2455636.861586            -484.557                          64.229
  2455636.902870            -396.462                          54.320
  2455637.921146            -420.077                          89.533
  2455638.894838            -296.051                          46.249
  2455641.814213            -210.787                          65.104
  2455641.854838            -317.618                          62.516
  2455643.839514            -286.712                          55.770
  2455644.869352            -315.051                          52.736
  2455645.868808            -335.752                          58.818
  2455670.766111            -469.336                          58.701
  2455672.766528            -342.000                          55.367
  2455673.775741            -252.074                          60.136
  2455674.805116            -433.917                          73.855
  2455694.725926            -263.288                          60.949
  2455695.721435            -433.451                          87.521
  2455696.720162            -336.805                          73.013
  2455697.737755            -444.364                          60.570
  2455704.784201            -257.617                          48.793
  2455722.652222            -228.872                          46.555
  2455722.688125            -169.563                          53.216
  2455723.652512            -164.478                          56.200
  2455759.654132            -193.776                          73.781
  2455937.014363             553.403                          51.156
  2455937.971574             639.041                          49.925
  2455938.958866             812.139                          78.785
  2455940.010833             644.850                          55.272
  2455940.984664             507.060                          92.626
  2455959.883970             745.256                          54.107
  2456050.729583             486.177                          57.674
  2456051.685463             726.637                            -NaN
  2456052.690961             811.593                          45.397
  2456053.690486             790.092                          57.805
  2456054.690845             632.482                          81.134
  2456077.700822             960.281                          52.006
  2456078.634282             703.906                          59.111
