\STAR_ID                            = "2MASS J14100088+2810090"
\DATA_CATEGORY                      = "Planet Radial Velocity Curve"
\NUMBER_OF_POINTS                   = "35"
\TIME_REFERENCE_FRAME               = "FCJD"
\MINIMUM_DATE                       = "2455613.974352"
\DATE_UNITS                         = "days"
\MAXIMUM_DATE                       = "2456048.807477"
\MINIMUM_VALUE                      = "-545.152"
\VALUE_UNITS                        = "m/s"
\MAXIMUM_VALUE                      = "605.477"
\REFERENCE                          = "Thomas et al. 2016 (PASP, 128, 5003)"
\BIBCODE                            = "2016PASP..128d5003T"
\TELESCOPE                          = "2.5m Sloan Foundation Telescope"
\INSTRUMENT                         = "MARVELS"
\WAVELENGTH_CALIBRATION_TECHNIQUE   = "Tungsten Iodine Lamp"
\OBSERVATORY_SITE                   = "Apache Point Observatory, New Mexico"
\COLUMN_FCJD                        = "Flux Centered Julian Date of observation"
\COLUMN_RADIAL_VELOCITY             = "Radial velocity relative to barycenter"
\COLUMN_RADIAL_VELOCITY_UNCERTAINTY = "Uncertainty in RADIAL_VELOCITY"
|           FCJD |   Radial_Velocity |   Radial_Velocity_Uncertainty |
|         double |            double |                        double |
|           days |               m/s |                           m/s |
  2455613.974352               4.125                         109.850
  2455614.949688              26.920                          96.774
  2455615.949375              14.477                         108.685
  2455635.872095              39.034                         102.438
  2455636.946285             180.775                          98.828
  2455636.987257              27.814                         104.901
  2455637.961215               5.195                          95.704
  2455638.936354               5.602                         115.773
  2455638.976609              31.756                         112.948
  2455639.964884             119.254                         107.972
  2455640.941157             194.019                         109.704
  2455641.940532             605.477                         166.110
  2455643.927801              24.052                          98.174
  2455644.959792              83.307                          97.467
  2455645.953368              30.063                          75.369
  2455667.878391             -48.521                          75.353
  2455668.890775              65.018                          94.533
  2455669.907975             107.862                          81.203
  2455672.893137              76.411                         133.024
  2455673.911736             -26.938                         104.926
  2455674.917778                -NaN                            -NaN
  2455693.760787              82.386                         114.261
  2455694.768414             -21.805                         106.133
  2455695.763796            -119.475                         100.929
  2455696.762361            -150.854                          86.005
  2455697.780463             -46.577                          77.547
  2455724.696829            -227.842                          96.652
  2455726.693183            -545.152                         121.572
  2455727.684653            -231.288                          89.758
  2455935.001134            -127.286                         108.923
  2455939.012581              60.651                          67.231
  2455968.932731             -61.162                          89.418
  2456024.850671             142.276                            -NaN
  2456029.829664            -192.877                          74.979
  2456048.807477            -126.697                         112.405
