\STAR_ID                            = "2MASS J13444175+2627521"
\DATA_CATEGORY                      = "Planet Radial Velocity Curve"
\NUMBER_OF_POINTS                   = "42"
\TIME_REFERENCE_FRAME               = "FCJD"
\MINIMUM_DATE                       = "2455610.028079"
\DATE_UNITS                         = "days"
\MAXIMUM_DATE                       = "2456078.634282"
\MINIMUM_VALUE                      = "-511.610"
\VALUE_UNITS                        = "m/s"
\MAXIMUM_VALUE                      = "968.960"
\REFERENCE                          = "Thomas et al. 2016 (PASP, 128, 5003)"
\BIBCODE                            = "2016PASP..128d5003T"
\TELESCOPE                          = "2.5m Sloan Foundation Telescope"
\INSTRUMENT                         = "MARVELS"
\WAVELENGTH_CALIBRATION_TECHNIQUE   = "Tungsten Iodine Lamp"
\OBSERVATORY_SITE                   = "Apache Point Observatory, New Mexico"
\COLUMN_FCJD                        = "Flux Centered Julian Date of observation"
\COLUMN_RADIAL_VELOCITY             = "Radial velocity relative to barycenter"
\COLUMN_RADIAL_VELOCITY_UNCERTAINTY = "Uncertainty in RADIAL_VELOCITY"
|           FCJD |   Radial_Velocity |   Radial_Velocity_Uncertainty |
|         double |            double |                        double |
|           days |               m/s |                           m/s |
  2455610.028079            -311.445                          52.530
  2455611.912025             -61.124                          51.379
  2455613.935000            -373.421                          68.850
  2455614.908067            -387.208                          42.489
  2455615.907662            -329.506                          57.959
  2455634.824826            -385.557                          41.031
  2455634.865741            -362.051                          41.097
  2455636.861586            -418.813                          39.513
  2455636.902870            -361.082                          44.064
  2455637.921146            -358.256                          57.299
  2455638.894838            -378.099                          55.574
  2455641.814213            -284.633                          62.165
  2455641.854838            -150.857                          66.447
  2455643.839514            -372.567                          41.476
  2455644.869352            -365.055                          45.438
  2455645.868808            -413.391                          56.743
  2455670.766111            -268.257                          72.276
  2455672.766528            -167.808                          48.273
  2455673.775741            -256.132                          56.428
  2455674.805116            -210.411                          55.622
  2455694.725926            -207.177                          48.732
  2455695.721435            -339.520                          56.116
  2455696.720162            -430.563                          54.945
  2455697.737755            -511.610                          61.769
  2455704.784201            -319.913                          40.404
  2455722.652222            -164.271                          48.220
  2455722.688125            -208.884                          48.580
  2455723.652512            -210.403                          57.795
  2455759.654132            -282.586                          77.015
  2455937.014363             426.669                          53.008
  2455937.971574             577.086                          60.596
  2455938.958866             603.691                          62.942
  2455940.010833             761.268                          66.802
  2455940.984664             774.794                          77.253
  2455959.883970             659.120                          50.147
  2456050.729583             654.553                          48.342
  2456051.685463             734.554                            -NaN
  2456052.690961             779.947                          58.871
  2456053.690486             515.359                         107.536
  2456054.690845             741.330                          97.101
  2456077.700822             968.960                          64.100
  2456078.634282             693.268                          74.454
