\STAR_ID                            = "2MASS J13512751+2800129"
\DATA_CATEGORY                      = "Planet Radial Velocity Curve"
\NUMBER_OF_POINTS                   = "42"
\TIME_REFERENCE_FRAME               = "FCJD"
\MINIMUM_DATE                       = "2455610.028079"
\DATE_UNITS                         = "days"
\MAXIMUM_DATE                       = "2456078.634282"
\MINIMUM_VALUE                      = "-15254.561"
\VALUE_UNITS                        = "m/s"
\MAXIMUM_VALUE                      = "11686.400"
\REFERENCE                          = "Thomas et al. 2016 (PASP, 128, 5003)"
\BIBCODE                            = "2016PASP..128d5003T"
\TELESCOPE                          = "2.5m Sloan Foundation Telescope"
\INSTRUMENT                         = "MARVELS"
\WAVELENGTH_CALIBRATION_TECHNIQUE   = "Tungsten Iodine Lamp"
\OBSERVATORY_SITE                   = "Apache Point Observatory, New Mexico"
\COLUMN_FCJD                        = "Flux Centered Julian Date of observation"
\COLUMN_RADIAL_VELOCITY             = "Radial velocity relative to barycenter"
\COLUMN_RADIAL_VELOCITY_UNCERTAINTY = "Uncertainty in RADIAL_VELOCITY"
|           FCJD |   Radial_Velocity |   Radial_Velocity_Uncertainty |
|         double |            double |                        double |
|           days |               m/s |                           m/s |
  2455610.028079           11182.907                         170.471
  2455611.912025           10583.896                         190.244
  2455613.935000            9804.412                         288.898
  2455614.908067            9673.794                         158.617
  2455615.907662            9225.085                         170.984
  2455634.824826            1329.774                         166.685
  2455634.865741             936.798                         143.594
  2455636.861586              -3.433                         104.974
  2455636.902870             -31.066                         175.547
  2455637.921146            -492.957                         151.858
  2455638.894838            -785.168                         184.675
  2455641.814213           -2463.568                         171.021
  2455641.854838           -2434.073                         136.821
  2455643.839514           -3359.121                         264.308
  2455644.869352           -3839.792                         153.286
  2455645.868808           -4227.503                         154.796
  2455670.766111          -14340.597                         190.500
  2455672.766528          -15085.542                         201.517
  2455673.775741          -15155.198                         172.984
  2455674.805116          -15244.404                         181.176
  2455694.725926          -15254.561                         111.800
  2455695.721435          -15199.298                         143.362
  2455696.720162          -14995.377                         176.854
  2455697.737755          -14871.192                         212.633
  2455704.784201          -11684.438                         184.871
  2455722.652222             212.876                            -NaN
  2455722.688125             157.759                          93.194
  2455723.652512             880.225                          82.033
  2455759.654132           11686.400                         120.036
  2455937.014363            4449.556                         153.311
  2455937.971574            3721.593                         116.275
  2455938.958866            3330.393                         103.362
  2455940.010833            3165.394                         115.022
  2455940.984664            2452.245                         128.309
  2455959.883970           -6084.147                         170.230
  2456050.729583           10248.748                          96.980
  2456051.685463           10424.398                         109.424
  2456052.690961           10420.705                         151.110
  2456053.690486           11119.805                          93.717
  2456054.690845           11161.182                         113.612
  2456077.700822            9625.196                         169.976
  2456078.634282            9758.289                         133.185
