\STAR_ID                            = "2MASS J14020198+2918302"
\DATA_CATEGORY                      = "Planet Radial Velocity Curve"
\NUMBER_OF_POINTS                   = "35"
\TIME_REFERENCE_FRAME               = "FCJD"
\MINIMUM_DATE                       = "2455613.974352"
\DATE_UNITS                         = "days"
\MAXIMUM_DATE                       = "2456048.807477"
\MINIMUM_VALUE                      = "-234.751"
\VALUE_UNITS                        = "m/s"
\MAXIMUM_VALUE                      = "881.749"
\REFERENCE                          = "Thomas et al. 2016 (PASP, 128, 5003)"
\BIBCODE                            = "2016PASP..128d5003T"
\TELESCOPE                          = "2.5m Sloan Foundation Telescope"
\INSTRUMENT                         = "MARVELS"
\WAVELENGTH_CALIBRATION_TECHNIQUE   = "Tungsten Iodine Lamp"
\OBSERVATORY_SITE                   = "Apache Point Observatory, New Mexico"
\COLUMN_FCJD                        = "Flux Centered Julian Date of observation"
\COLUMN_RADIAL_VELOCITY             = "Radial velocity relative to barycenter"
\COLUMN_RADIAL_VELOCITY_UNCERTAINTY = "Uncertainty in RADIAL_VELOCITY"
|           FCJD |   Radial_Velocity |   Radial_Velocity_Uncertainty |
|         double |            double |                        double |
|           days |               m/s |                           m/s |
  2455613.974352             -17.556                          97.084
  2455614.949688            -105.061                          94.458
  2455615.949375             -97.701                         105.612
  2455635.872095            -170.184                          78.581
  2455636.946285            -190.788                          85.406
  2455636.987257             -74.066                          58.870
  2455637.961215            -199.663                          54.952
  2455638.936354            -104.823                          82.770
  2455638.976609            -101.130                         114.382
  2455639.964884             -48.503                          72.731
  2455640.941157            -151.757                          95.484
  2455641.940532              68.357                         110.478
  2455643.927801             -93.435                          63.817
  2455644.959792            -234.751                          74.000
  2455645.953368               3.263                          72.140
  2455667.878391             -90.955                          74.135
  2455668.890775            -184.956                          82.975
  2455669.907975            -152.972                          73.752
  2455672.893137             109.452                          83.652
  2455673.911736            -102.370                          92.917
  2455674.917778                -NaN                            -NaN
  2455693.760787             106.112                         105.278
  2455694.768414                -NaN                            -NaN
  2455695.763796              22.431                          89.381
  2455696.762361             113.800                          99.320
  2455697.780463              72.963                          75.747
  2455724.696829              69.048                          84.665
  2455726.693183             881.749                         139.670
  2455727.684653              90.742                          72.109
  2455935.001134             100.082                         106.971
  2455939.012581             230.818                          85.116
  2455968.932731              48.003                          81.659
  2456024.850671             111.038                            -NaN
  2456029.829664             -31.512                          89.563
  2456048.807477             124.328                          47.147
