\STAR_ID                            = "TYC 2005-00125-1"
\DATA_CATEGORY                      = "Planet Radial Velocity Curve"
\NUMBER_OF_POINTS                   = "42"
\TIME_REFERENCE_FRAME               = "FCJD"
\MINIMUM_DATE                       = "2455610.028079"
\DATE_UNITS                         = "days"
\MAXIMUM_DATE                       = "2456078.634282"
\MINIMUM_VALUE                      = "-173.328"
\VALUE_UNITS                        = "m/s"
\MAXIMUM_VALUE                      = "210.432"
\REFERENCE                          = "Thomas et al. 2016 (PASP, 128, 5003)"
\BIBCODE                            = "2016PASP..128d5003T"
\TELESCOPE                          = "2.5m Sloan Foundation Telescope"
\INSTRUMENT                         = "MARVELS"
\WAVELENGTH_CALIBRATION_TECHNIQUE   = "Tungsten Iodine Lamp"
\OBSERVATORY_SITE                   = "Apache Point Observatory, New Mexico"
\COLUMN_FCJD                        = "Flux Centered Julian Date of observation"
\COLUMN_RADIAL_VELOCITY             = "Radial velocity relative to barycenter"
\COLUMN_RADIAL_VELOCITY_UNCERTAINTY = "Uncertainty in RADIAL_VELOCITY"
|           FCJD |   Radial_Velocity |   Radial_Velocity_Uncertainty |
|         double |            double |                        double |
|           days |               m/s |                           m/s |
  2455610.028079                -NaN                            -NaN
  2455611.912025                -NaN                            -NaN
  2455613.935000                -NaN                            -NaN
  2455614.908067                -NaN                            -NaN
  2455615.907662                -NaN                            -NaN
  2455634.824826              95.395                          20.740
  2455634.865741              69.833                          15.844
  2455636.861586              18.590                          14.063
  2455636.902870              72.381                          19.433
  2455637.921146             101.077                          19.877
  2455638.894838              57.121                          17.744
  2455641.814213             -15.461                          13.584
  2455641.854838             -38.327                          16.914
  2455643.839514             -19.514                          16.066
  2455644.869352              49.318                          17.451
  2455645.868808             -38.649                          16.723
  2455670.766111              48.574                          19.823
  2455672.766528             210.432                          22.086
  2455673.775741              72.595                          19.559
  2455674.805116             195.754                          23.548
  2455694.725926             -67.894                            -NaN
  2455695.721435              47.833                          15.798
  2455696.720162              48.660                          18.872
  2455697.737755              76.771                          24.698
  2455704.784201             -98.122                          16.581
  2455722.652222              -9.398                          18.900
  2455722.688125             -23.641                          23.172
  2455723.652512              -7.743                          19.422
  2455759.654132              48.535                          25.885
  2455937.014363            -160.385                          21.728
  2455937.971574            -158.522                          21.891
  2455938.958866            -147.471                          22.715
  2455940.010833            -147.522                          21.492
  2455940.984664            -169.531                          20.679
  2455959.883970            -173.328                          30.926
  2456050.729583             -24.122                          20.890
  2456051.685463             -22.809                          15.707
  2456052.690961             -43.827                          15.541
  2456053.690486             -26.496                          19.102
  2456054.690845             -24.678                          18.524
  2456077.700822             100.599                          21.488
  2456078.634282             103.972                          20.602
