\STAR_ID                            = "2MASS J14062961+2726195"
\DATA_CATEGORY                      = "Planet Radial Velocity Curve"
\NUMBER_OF_POINTS                   = "35"
\TIME_REFERENCE_FRAME               = "FCJD"
\MINIMUM_DATE                       = "2455613.974352"
\DATE_UNITS                         = "days"
\MAXIMUM_DATE                       = "2456048.807477"
\MINIMUM_VALUE                      = "-26222.035"
\VALUE_UNITS                        = "m/s"
\MAXIMUM_VALUE                      = "8215.996"
\REFERENCE                          = "Thomas et al. 2016 (PASP, 128, 5003)"
\BIBCODE                            = "2016PASP..128d5003T"
\TELESCOPE                          = "2.5m Sloan Foundation Telescope"
\INSTRUMENT                         = "MARVELS"
\WAVELENGTH_CALIBRATION_TECHNIQUE   = "Tungsten Iodine Lamp"
\OBSERVATORY_SITE                   = "Apache Point Observatory, New Mexico"
\COLUMN_FCJD                        = "Flux Centered Julian Date of observation"
\COLUMN_RADIAL_VELOCITY             = "Radial velocity relative to barycenter"
\COLUMN_RADIAL_VELOCITY_UNCERTAINTY = "Uncertainty in RADIAL_VELOCITY"
|           FCJD |   Radial_Velocity |   Radial_Velocity_Uncertainty |
|         double |            double |                        double |
|           days |               m/s |                           m/s |
  2455613.974352            5528.131                          95.036
  2455614.949688            6693.273                          67.670
  2455615.949375            7424.804                          71.162
  2455635.872095           -7086.552                          99.553
  2455636.946285           -4393.479                          61.772
  2455636.987257           -4502.312                          89.073
  2455637.961215           -2154.298                          73.225
  2455638.936354              -9.172                          66.558
  2455638.976609             -14.825                          60.951
  2455639.964884            1709.244                          70.606
  2455640.941157            3325.765                          61.553
  2455641.940532            4954.751                          69.945
  2455643.927801            7048.923                          69.841
  2455644.959792            7708.873                            -NaN
  2455645.953368            8215.996                          62.927
  2455667.878391             604.261                          61.828
  2455668.890775            2295.257                          61.622
  2455669.907975            3930.899                          69.766
  2455672.893137            7147.301                          94.220
  2455673.911736            7884.967                          54.731
  2455674.917778                -NaN                            -NaN
  2455693.760787           -5123.016                          87.254
  2455694.768414           -2855.989                          64.963
  2455695.763796            -739.402                          93.377
  2455696.762361            1096.536                         108.489
  2455697.780463            2949.627                          83.060
  2455724.696829             -91.439                          56.641
  2455726.693183            3029.885                          86.115
  2455727.684653            4988.554                         122.562
  2455935.001134                -NaN                            -NaN
  2455939.012581          -18801.211                          65.913
  2455968.932731                -NaN                            -NaN
  2456024.850671          -20438.150                          51.331
  2456029.829664          -26222.035                          89.104
  2456048.807477            5894.837                          72.748
