\STAR_ID                            = "2MASS J13470529+2623552"
\DATA_CATEGORY                      = "Planet Radial Velocity Curve"
\NUMBER_OF_POINTS                   = "42"
\TIME_REFERENCE_FRAME               = "FCJD"
\MINIMUM_DATE                       = "2455610.028079"
\DATE_UNITS                         = "days"
\MAXIMUM_DATE                       = "2456078.634282"
\MINIMUM_VALUE                      = "-168.136"
\VALUE_UNITS                        = "m/s"
\MAXIMUM_VALUE                      = "182.669"
\REFERENCE                          = "Thomas et al. 2016 (PASP, 128, 5003)"
\BIBCODE                            = "2016PASP..128d5003T"
\TELESCOPE                          = "2.5m Sloan Foundation Telescope"
\INSTRUMENT                         = "MARVELS"
\WAVELENGTH_CALIBRATION_TECHNIQUE   = "Tungsten Iodine Lamp"
\OBSERVATORY_SITE                   = "Apache Point Observatory, New Mexico"
\COLUMN_FCJD                        = "Flux Centered Julian Date of observation"
\COLUMN_RADIAL_VELOCITY             = "Radial velocity relative to barycenter"
\COLUMN_RADIAL_VELOCITY_UNCERTAINTY = "Uncertainty in RADIAL_VELOCITY"
|           FCJD |   Radial_Velocity |   Radial_Velocity_Uncertainty |
|         double |            double |                        double |
|           days |               m/s |                           m/s |
  2455610.028079              28.007                          69.460
  2455611.912025             182.669                          76.498
  2455613.935000              59.312                          82.121
  2455614.908067             -67.836                          70.460
  2455615.907662               6.574                          72.955
  2455634.824826             -26.625                          76.275
  2455634.865741              15.351                          62.689
  2455636.861586             -56.257                          61.301
  2455636.902870             -69.755                          57.058
  2455637.921146             -10.774                          58.696
  2455638.894838              39.045                          65.177
  2455641.814213              27.344                          69.495
  2455641.854838              95.975                          52.777
  2455643.839514              32.486                          74.027
  2455644.869352             -13.060                          70.873
  2455645.868808               8.397                          57.378
  2455670.766111            -167.328                          89.953
  2455672.766528            -168.136                         111.952
  2455673.775741            -122.390                          62.179
  2455674.805116            -115.779                          79.532
  2455694.725926              25.313                          61.990
  2455695.721435             151.616                          72.833
  2455696.720162             148.583                          67.838
  2455697.737755              -5.116                          69.760
  2455704.784201              46.273                          58.574
  2455722.652222             -67.373                          45.366
  2455722.688125             -68.281                          47.848
  2455723.652512             -44.413                          55.459
  2455759.654132            -114.347                          62.373
  2455937.014363              87.030                          66.120
  2455937.971574             -33.016                          73.996
  2455938.958866              62.035                          84.963
  2455940.010833              30.665                          81.494
  2455940.984664             157.339                          78.026
  2455959.883970             -65.166                          56.298
  2456050.729583              67.649                          69.146
  2456051.685463              36.724                          62.208
  2456052.690961              92.373                          62.770
  2456053.690486              33.493                          58.689
  2456054.690845             -20.136                          68.556
  2456077.700822             -76.752                            -NaN
  2456078.634282            -121.712                          38.205
