\STAR_ID                            = "2MASS J21272863+5326566"
\DATA_CATEGORY                      = "Planet Radial Velocity Curve"
\NUMBER_OF_POINTS                   = "32"
\TIME_REFERENCE_FRAME               = "FCJD"
\MINIMUM_DATE                       = "2454993.897523"
\DATE_UNITS                         = "days"
\MAXIMUM_DATE                       = "2455550.601528"
\MINIMUM_VALUE                      = "-26154.795"
\VALUE_UNITS                        = "m/s"
\MAXIMUM_VALUE                      = "1423.222"
\REFERENCE                          = "Thomas et al. 2016 (PASP, 128, 5003)"
\BIBCODE                            = "2016PASP..128d5003T"
\TELESCOPE                          = "2.5m Sloan Foundation Telescope"
\INSTRUMENT                         = "MARVELS"
\WAVELENGTH_CALIBRATION_TECHNIQUE   = "Tungsten Iodine Lamp"
\OBSERVATORY_SITE                   = "Apache Point Observatory, New Mexico"
\COLUMN_FCJD                        = "Flux Centered Julian Date of observation"
\COLUMN_RADIAL_VELOCITY             = "Radial velocity relative to barycenter"
\COLUMN_RADIAL_VELOCITY_UNCERTAINTY = "Uncertainty in RADIAL_VELOCITY"
|           FCJD |   Radial_Velocity |   Radial_Velocity_Uncertainty |
|         double |            double |                        double |
|           days |               m/s |                           m/s |
  2454993.897523          -26154.795                            -NaN
  2455102.791736                -NaN                            -NaN
  2455103.762222                -NaN                            -NaN
  2455104.813565                -NaN                            -NaN
  2455106.800660                -NaN                            -NaN
  2455111.759190                -NaN                            -NaN
  2455114.773171                -NaN                            -NaN
  2455135.718634            1191.305                         239.795
  2455140.714340             949.948                         251.529
  2455141.620012            1030.922                         236.604
  2455142.689236            1109.382                         229.740
  2455158.662037            1000.177                         215.806
  2455159.652951            1015.262                         210.853
  2455160.651169            1132.206                         191.443
  2455161.661053            1116.411                         224.264
  2455162.665150            1272.341                         301.026
  2455198.570752             946.546                         222.898
  2455199.560880            1100.404                         387.331
  2455345.919653             971.093                         247.770
  2455374.792928            1064.399                         229.508
  2455382.875764             895.523                         265.681
  2455456.770417            1237.665                         197.386
  2455466.759919            1423.222                         196.318
  2455469.781157            1110.623                         220.925
  2455470.774433            1008.560                         207.013
  2455489.696505            1032.687                         226.161
  2455496.712975            1214.592                         205.532
  2455497.751215            1168.402                         231.199
  2455498.723704            1118.409                         201.372
  2455521.637627            1185.038                         210.703
  2455522.643171                -NaN                            -NaN
  2455550.601528             859.681                         263.305
