\STAR_ID                            = "2MASS J18010323+4150034"
\DATA_CATEGORY                      = "Planet Radial Velocity Curve"
\NUMBER_OF_POINTS                   = "24"
\TIME_REFERENCE_FRAME               = "FCJD"
\MINIMUM_DATE                       = "2454956.868252"
\DATE_UNITS                         = "days"
\MAXIMUM_DATE                       = "2455488.590394"
\MINIMUM_VALUE                      = "-62775.887"
\VALUE_UNITS                        = "m/s"
\MAXIMUM_VALUE                      = "2902.154"
\REFERENCE                          = "Thomas et al. 2016 (PASP, 128, 5003)"
\BIBCODE                            = "2016PASP..128d5003T"
\TELESCOPE                          = "2.5m Sloan Foundation Telescope"
\INSTRUMENT                         = "MARVELS"
\WAVELENGTH_CALIBRATION_TECHNIQUE   = "Tungsten Iodine Lamp"
\OBSERVATORY_SITE                   = "Apache Point Observatory, New Mexico"
\COLUMN_FCJD                        = "Flux Centered Julian Date of observation"
\COLUMN_RADIAL_VELOCITY             = "Radial velocity relative to barycenter"
\COLUMN_RADIAL_VELOCITY_UNCERTAINTY = "Uncertainty in RADIAL_VELOCITY"
|           FCJD |   Radial_Velocity |   Radial_Velocity_Uncertainty |
|         double |            double |                        double |
|           days |               m/s |                           m/s |
  2454956.868252            2783.042                          44.866
  2454957.900486            2602.089                          37.321
  2454958.868044            2813.418                          37.094
  2454962.873576            2806.431                          31.024
  2454963.849583            2747.389                          45.732
  2454965.866690            2761.489                            -NaN
  2454986.844606            2692.871                          44.953
  2454993.757361            2588.747                          32.726
  2454994.746053            2767.686                          62.094
  2454995.853009            2701.367                          54.419
  2455014.749549            2745.984                          47.902
  2455020.800463            2671.257                          89.444
  2455021.810081            2552.769                          58.907
  2455023.789572            2502.434                          55.908
  2455024.744097            2715.636                          46.572
  2455025.802477            2586.976                          47.058
  2455259.954074            2745.492                          43.474
  2455260.946204            2886.046                          51.579
  2455350.875162            2716.918                          46.631
  2455367.653704            2692.781                          62.081
  2455372.811539          -62775.887                          66.997
  2455484.569363            2897.242                          41.217
  2455487.570301            2902.154                          44.710
  2455488.590394            2895.674                          43.572
