\STAR_ID                            = "2MASS J17335723+3052276"
\DATA_CATEGORY                      = "Planet Radial Velocity Curve"
\NUMBER_OF_POINTS                   = "24"
\TIME_REFERENCE_FRAME               = "FCJD"
\MINIMUM_DATE                       = "2454955.864016"
\DATE_UNITS                         = "days"
\MAXIMUM_DATE                       = "2455382.915764"
\MINIMUM_VALUE                      = "-46215.992"
\VALUE_UNITS                        = "m/s"
\MAXIMUM_VALUE                      = "3028.748"
\REFERENCE                          = "Thomas et al. 2016 (PASP, 128, 5003)"
\BIBCODE                            = "2016PASP..128d5003T"
\TELESCOPE                          = "2.5m Sloan Foundation Telescope"
\INSTRUMENT                         = "MARVELS"
\WAVELENGTH_CALIBRATION_TECHNIQUE   = "Tungsten Iodine Lamp"
\OBSERVATORY_SITE                   = "Apache Point Observatory, New Mexico"
\COLUMN_FCJD                        = "Flux Centered Julian Date of observation"
\COLUMN_RADIAL_VELOCITY             = "Radial velocity relative to barycenter"
\COLUMN_RADIAL_VELOCITY_UNCERTAINTY = "Uncertainty in RADIAL_VELOCITY"
|           FCJD |   Radial_Velocity |   Radial_Velocity_Uncertainty |
|         double |            double |                        double |
|           days |               m/s |                           m/s |
  2454955.864016            3028.748                          46.230
  2454988.828252            2957.543                          49.658
  2454995.810266            2805.650                          50.098
  2455020.703206            2812.972                          38.258
  2455025.652731            2829.801                          39.196
  2455106.662870            2781.948                          33.418
  2455107.640752            2825.544                          59.121
  2455255.005741            2004.196                          47.547
  2455259.009201            1906.730                          30.840
  2455281.898692            1890.069                          57.487
  2455284.876863            1886.830                          44.899
  2455286.897280            1824.030                          30.082
  2455291.863623            1806.534                          32.624
  2455292.871169            1798.702                          26.651
  2455311.888623            1681.968                          51.739
  2455312.798368            1674.151                          50.556
  2455314.806169            1825.395                          53.923
  2455338.781840            1467.127                            -NaN
  2455346.710660            1370.947                          81.309
  2455347.706088            1368.748                          46.284
  2455350.836308            1329.204                          32.715
  2455374.883113          -46215.992                          60.068
  2455381.881088            1088.050                          30.129
  2455382.915764            1251.103                          60.250
