\STAR_ID                            = "2MASS J04380449+1943215"
\DATA_CATEGORY                      = "Planet Radial Velocity Curve"
\NUMBER_OF_POINTS                   = "29"
\TIME_REFERENCE_FRAME               = "FCJD"
\MINIMUM_DATE                       = "2454778.841690"
\DATE_UNITS                         = "days"
\MAXIMUM_DATE                       = "2455556.882812"
\MINIMUM_VALUE                      = "-311.073"
\VALUE_UNITS                        = "m/s"
\MAXIMUM_VALUE                      = "186.032"
\REFERENCE                          = "Thomas et al. 2016 (PASP, 128, 5003)"
\BIBCODE                            = "2016PASP..128d5003T"
\TELESCOPE                          = "2.5m Sloan Foundation Telescope"
\INSTRUMENT                         = "MARVELS"
\WAVELENGTH_CALIBRATION_TECHNIQUE   = "Tungsten Iodine Lamp"
\OBSERVATORY_SITE                   = "Apache Point Observatory, New Mexico"
\COLUMN_FCJD                        = "Flux Centered Julian Date of observation"
\COLUMN_RADIAL_VELOCITY             = "Radial velocity relative to barycenter"
\COLUMN_RADIAL_VELOCITY_UNCERTAINTY = "Uncertainty in RADIAL_VELOCITY"
|           FCJD |   Radial_Velocity |   Radial_Velocity_Uncertainty |
|         double |            double |                        double |
|           days |               m/s |                           m/s |
  2454778.841690                -NaN                            -NaN
  2454811.766007               9.381                          66.573
  2454816.864433             157.681                          58.002
  2454845.728125                -NaN                            -NaN
  2454869.742037                -NaN                            -NaN
  2454901.605637                -NaN                            -NaN
  2455135.771782              61.813                          55.478
  2455136.736412              35.903                          58.418
  2455138.785683              -6.724                          60.548
  2455158.709502             -56.094                          69.286
  2455159.700544              12.191                          70.196
  2455160.751366             112.214                          62.738
  2455161.707141             108.916                          67.267
  2455162.726042              88.632                          80.826
  2455192.689734              25.821                          72.221
  2455199.754884             186.032                          69.856
  2455201.720972            -118.876                          64.895
  2455202.783345              60.291                          72.279
  2455280.610347              26.903                          88.602
  2455284.607523                -NaN                            -NaN
  2455463.864306            -239.438                          53.039
  2455489.746667             -71.286                          56.306
  2455489.787257             -54.621                          75.829
  2455500.947361            -162.074                            -NaN
  2455542.684039            -115.962                          60.624
  2455543.683889            -311.073                          62.585
  2455544.700046              68.091                          70.594
  2455545.734688              76.852                          63.496
  2455556.882812             105.428                         102.681
