\STAR_ID                            = "2MASS J07262043+0555183"
\DATA_CATEGORY                      = "Planet Radial Velocity Curve"
\NUMBER_OF_POINTS                   = "27"
\TIME_REFERENCE_FRAME               = "FCJD"
\MINIMUM_DATE                       = "2454782.994757"
\DATE_UNITS                         = "days"
\MAXIMUM_DATE                       = "2455557.925394"
\MINIMUM_VALUE                      = "-21077.135"
\VALUE_UNITS                        = "m/s"
\MAXIMUM_VALUE                      = "1211.057"
\REFERENCE                          = "Thomas et al. 2016 (PASP, 128, 5003)"
\BIBCODE                            = "2016PASP..128d5003T"
\TELESCOPE                          = "2.5m Sloan Foundation Telescope"
\INSTRUMENT                         = "MARVELS"
\WAVELENGTH_CALIBRATION_TECHNIQUE   = "Tungsten Iodine Lamp"
\OBSERVATORY_SITE                   = "Apache Point Observatory, New Mexico"
\COLUMN_FCJD                        = "Flux Centered Julian Date of observation"
\COLUMN_RADIAL_VELOCITY             = "Radial velocity relative to barycenter"
\COLUMN_RADIAL_VELOCITY_UNCERTAINTY = "Uncertainty in RADIAL_VELOCITY"
|           FCJD |   Radial_Velocity |   Radial_Velocity_Uncertainty |
|         double |            double |                        double |
|           days |               m/s |                           m/s |
  2454782.994757            1211.057                         103.537
  2454783.998947            1084.965                         154.833
  2454785.988623            1082.970                          90.723
  2454840.912257            1076.196                         179.970
  2455136.944329             897.413                          99.029
  2455137.954502             992.460                         100.391
  2455139.919444             827.295                         106.671
  2455140.978102             547.713                         123.244
  2455141.960509             870.639                         105.257
  2455193.864491             842.656                          91.990
  2455197.868519             982.533                          78.900
  2455200.841852            1022.876                         163.699
  2455201.922766             981.098                         142.877
  2455202.934016            1062.740                         176.865
  2455223.750301             900.423                          91.618
  2455259.782940             921.139                         102.244
  2455283.664352             942.984                         128.260
  2455284.651296            1056.912                         101.041
  2455286.686539             983.370                         111.705
  2455312.624178          -21077.135                            -NaN
  2455468.969664                -NaN                            -NaN
  2455469.956586                -NaN                            -NaN
  2455470.966435                -NaN                            -NaN
  2455523.965231             756.105                         109.887
  2455524.006713             672.154                         106.290
  2455550.791759             760.309                          82.260
  2455557.925394             601.127                         133.942
