\STAR_ID                            = "2MASS J23012632+3926585"
\DATA_CATEGORY                      = "Planet Radial Velocity Curve"
\NUMBER_OF_POINTS                   = "31"
\TIME_REFERENCE_FRAME               = "FCJD"
\MINIMUM_DATE                       = "2454777.650150"
\DATE_UNITS                         = "days"
\MAXIMUM_DATE                       = "2455543.598148"
\MINIMUM_VALUE                      = "-5125.487"
\VALUE_UNITS                        = "m/s"
\MAXIMUM_VALUE                      = "3588.000"
\REFERENCE                          = "Thomas et al. 2016 (PASP, 128, 5003)"
\BIBCODE                            = "2016PASP..128d5003T"
\TELESCOPE                          = "2.5m Sloan Foundation Telescope"
\INSTRUMENT                         = "MARVELS"
\WAVELENGTH_CALIBRATION_TECHNIQUE   = "Tungsten Iodine Lamp"
\OBSERVATORY_SITE                   = "Apache Point Observatory, New Mexico"
\COLUMN_FCJD                        = "Flux Centered Julian Date of observation"
\COLUMN_RADIAL_VELOCITY             = "Radial velocity relative to barycenter"
\COLUMN_RADIAL_VELOCITY_UNCERTAINTY = "Uncertainty in RADIAL_VELOCITY"
|           FCJD |   Radial_Velocity |   Radial_Velocity_Uncertainty |
|         double |            double |                        double |
|           days |               m/s |                           m/s |
  2454777.650150             473.146                          51.406
  2454778.612164             538.863                          61.166
  2454779.609664             609.180                            -NaN
  2454782.569722             420.071                          51.254
  2454785.699988                -NaN                            -NaN
  2454786.674363             510.416                          60.292
  2454788.723090             475.495                          90.142
  2454807.559155             496.288                          50.149
  2454808.559421             435.904                          52.785
  2454811.596007             436.599                          76.431
  2454812.589942             376.998                          55.139
  2454839.609583             544.830                          70.312
  2454840.611169             930.459                          71.203
  2454841.630694             936.528                          84.774
  2454843.582234             970.250                          88.315
  2454844.589109            1030.960                         107.565
  2455020.892083            3487.769                         210.682
  2455021.900058            3223.972                         140.899
  2455022.910741            3588.000                         217.820
  2455023.877060            3459.230                         233.465
  2455024.882859            3341.023                         204.434
  2455025.890255            3460.768                         190.539
  2455103.808287                -NaN                            -NaN
  2455104.859583                -NaN                            -NaN
  2455106.847778                -NaN                            -NaN
  2455515.647315           -4928.392                         170.125
  2455519.676019           -4969.900                         223.571
  2455523.645718           -4905.339                         209.420
  2455524.778750           -5125.487                         200.626
  2455527.757454           -4956.957                         164.410
  2455543.598148           -4860.675                         153.166
