\STAR_ID                            = "2MASS J13424040+4633261"
\DATA_CATEGORY                      = "Planet Radial Velocity Curve"
\NUMBER_OF_POINTS                   = "23"
\TIME_REFERENCE_FRAME               = "FCJD"
\MINIMUM_DATE                       = "2454901.948889"
\DATE_UNITS                         = "days"
\MAXIMUM_DATE                       = "2455349.824271"
\MINIMUM_VALUE                      = "-207.306"
\VALUE_UNITS                        = "m/s"
\MAXIMUM_VALUE                      = "94.693"
\REFERENCE                          = "Thomas et al. 2016 (PASP, 128, 5003)"
\BIBCODE                            = "2016PASP..128d5003T"
\TELESCOPE                          = "2.5m Sloan Foundation Telescope"
\INSTRUMENT                         = "MARVELS"
\WAVELENGTH_CALIBRATION_TECHNIQUE   = "Tungsten Iodine Lamp"
\OBSERVATORY_SITE                   = "Apache Point Observatory, New Mexico"
\COLUMN_FCJD                        = "Flux Centered Julian Date of observation"
\COLUMN_RADIAL_VELOCITY             = "Radial velocity relative to barycenter"
\COLUMN_RADIAL_VELOCITY_UNCERTAINTY = "Uncertainty in RADIAL_VELOCITY"
|           FCJD |   Radial_Velocity |   Radial_Velocity_Uncertainty |
|         double |            double |                        double |
|           days |               m/s |                           m/s |
  2454901.948889              14.023                          57.321
  2454902.949583            -207.306                          48.792
  2454905.957824             -82.920                          37.490
  2454906.926551             -51.910                          55.516
  2454907.918171             -18.838                          76.156
  2454926.903426               8.033                          50.400
  2454927.908391             -20.571                          50.412
  2454983.751771             -19.449                          75.192
  2454984.744155              67.687                          76.008
  2455014.649456             -44.516                          69.198
  2455023.653333              54.586                          78.512
  2455024.653067              53.603                          67.600
  2455222.917106              21.460                          47.584
  2455223.907037              25.741                            -NaN
  2455254.910266             -45.478                          51.204
  2455258.921458             -50.859                          53.298
  2455259.910312              71.037                          49.417
  2455260.900347              17.754                          58.982
  2455261.955741              94.693                          57.988
  2455280.863611              52.825                          53.301
  2455289.767384              28.005                          45.357
  2455312.666562              -6.040                          55.008
  2455349.824271              38.441                          60.955
