\STAR_ID                            = "2MASS J23011224+3938224"
\DATA_CATEGORY                      = "Planet Radial Velocity Curve"
\NUMBER_OF_POINTS                   = "31"
\TIME_REFERENCE_FRAME               = "FCJD"
\MINIMUM_DATE                       = "2454777.650150"
\DATE_UNITS                         = "days"
\MAXIMUM_DATE                       = "2455543.598148"
\MINIMUM_VALUE                      = "-9369.718"
\VALUE_UNITS                        = "m/s"
\MAXIMUM_VALUE                      = "9754.834"
\REFERENCE                          = "Thomas et al. 2016 (PASP, 128, 5003)"
\BIBCODE                            = "2016PASP..128d5003T"
\TELESCOPE                          = "2.5m Sloan Foundation Telescope"
\INSTRUMENT                         = "MARVELS"
\WAVELENGTH_CALIBRATION_TECHNIQUE   = "Tungsten Iodine Lamp"
\OBSERVATORY_SITE                   = "Apache Point Observatory, New Mexico"
\COLUMN_FCJD                        = "Flux Centered Julian Date of observation"
\COLUMN_RADIAL_VELOCITY             = "Radial velocity relative to barycenter"
\COLUMN_RADIAL_VELOCITY_UNCERTAINTY = "Uncertainty in RADIAL_VELOCITY"
|           FCJD |   Radial_Velocity |   Radial_Velocity_Uncertainty |
|         double |            double |                        double |
|           days |               m/s |                           m/s |
  2454777.650150            2639.641                          47.471
  2454778.612164            2625.154                          36.578
  2454779.609664            2586.395                            -NaN
  2454782.569722            2455.340                          45.994
  2454785.699988                -NaN                            -NaN
  2454786.674363            2330.783                          49.516
  2454788.723090            2134.089                          31.468
  2454807.559155            1488.081                          56.127
  2454808.559421            1540.165                          42.434
  2454811.596007            1290.555                          45.658
  2454812.589942            1162.199                          53.846
  2454839.609583              19.973                          66.275
  2454840.611169             314.918                          51.739
  2454841.630694             152.281                          50.155
  2454843.582234             -45.211                          66.074
  2454844.589109               5.385                          73.658
  2455020.892083           -6758.817                          69.789
  2455021.900058           -6784.573                          68.667
  2455022.910741           -6793.485                          70.420
  2455023.877060           -6735.525                          72.152
  2455024.882859           -6803.045                          83.596
  2455025.890255           -6875.312                          75.491
  2455103.808287           -9235.873                          85.839
  2455104.859583           -9310.762                          66.019
  2455106.847778           -9369.718                          57.021
  2455515.647315            7069.652                          65.067
  2455519.676019            7489.208                          68.617
  2455523.645718            7980.307                          70.380
  2455524.778750            7541.851                          80.314
  2455527.757454            8131.511                          75.149
  2455543.598148            9754.834                          86.514
