\STAR_ID                            = "2MASS J13270819+5424572"
\DATA_CATEGORY                      = "Planet Radial Velocity Curve"
\NUMBER_OF_POINTS                   = "24"
\TIME_REFERENCE_FRAME               = "FCJD"
\MINIMUM_DATE                       = "2454926.852755"
\DATE_UNITS                         = "days"
\MAXIMUM_DATE                       = "2455558.013808"
\MINIMUM_VALUE                      = "-1527.342"
\VALUE_UNITS                        = "m/s"
\MAXIMUM_VALUE                      = "1754.795"
\REFERENCE                          = "Thomas et al. 2016 (PASP, 128, 5003)"
\BIBCODE                            = "2016PASP..128d5003T"
\TELESCOPE                          = "2.5m Sloan Foundation Telescope"
\INSTRUMENT                         = "MARVELS"
\WAVELENGTH_CALIBRATION_TECHNIQUE   = "Tungsten Iodine Lamp"
\OBSERVATORY_SITE                   = "Apache Point Observatory, New Mexico"
\COLUMN_FCJD                        = "Flux Centered Julian Date of observation"
\COLUMN_RADIAL_VELOCITY             = "Radial velocity relative to barycenter"
\COLUMN_RADIAL_VELOCITY_UNCERTAINTY = "Uncertainty in RADIAL_VELOCITY"
|           FCJD |   Radial_Velocity |   Radial_Velocity_Uncertainty |
|         double |            double |                        double |
|           days |               m/s |                           m/s |
  2454926.852755                -NaN                            -NaN
  2454927.864861           -1527.342                         150.854
  2454928.894109            -690.464                         318.995
  2454954.795671           -1102.058                         125.567
  2454983.708935           -1247.562                            -NaN
  2455198.987211              22.611                         254.342
  2455200.006852            -277.250                         315.872
  2455201.030613             -73.123                         200.488
  2455202.025764            -331.402                         302.067
  2455203.032014            -363.992                         130.282
  2455222.858866             -66.637                         233.581
  2455223.864641            -186.590                         193.196
  2455259.868056              -7.463                         160.566
  2455260.860752             -74.161                         178.870
  2455261.858519             -36.797                         201.342
  2455280.816470             225.045                         266.865
  2455281.814850             370.446                         219.454
  2455283.852164             267.256                         149.793
  2455284.788426             202.148                         165.334
  2455311.727222             -44.755                         133.002
  2455314.670521             297.535                         137.605
  2455553.021551            1493.659                         226.700
  2455557.013947            1396.099                         207.138
  2455558.013808            1754.795                         192.028
