\STAR_ID                            = "2MASS J13405804+5404264"
\DATA_CATEGORY                      = "Planet Radial Velocity Curve"
\NUMBER_OF_POINTS                   = "24"
\TIME_REFERENCE_FRAME               = "FCJD"
\MINIMUM_DATE                       = "2454926.852755"
\DATE_UNITS                         = "days"
\MAXIMUM_DATE                       = "2455558.013808"
\MINIMUM_VALUE                      = "-106.034"
\VALUE_UNITS                        = "m/s"
\MAXIMUM_VALUE                      = "78.182"
\REFERENCE                          = "Thomas et al. 2016 (PASP, 128, 5003)"
\BIBCODE                            = "2016PASP..128d5003T"
\TELESCOPE                          = "2.5m Sloan Foundation Telescope"
\INSTRUMENT                         = "MARVELS"
\WAVELENGTH_CALIBRATION_TECHNIQUE   = "Tungsten Iodine Lamp"
\OBSERVATORY_SITE                   = "Apache Point Observatory, New Mexico"
\COLUMN_FCJD                        = "Flux Centered Julian Date of observation"
\COLUMN_RADIAL_VELOCITY             = "Radial velocity relative to barycenter"
\COLUMN_RADIAL_VELOCITY_UNCERTAINTY = "Uncertainty in RADIAL_VELOCITY"
|           FCJD |   Radial_Velocity |   Radial_Velocity_Uncertainty |
|         double |            double |                        double |
|           days |               m/s |                           m/s |
  2454926.852755                -NaN                            -NaN
  2454927.864861                -NaN                            -NaN
  2454928.894109                -NaN                            -NaN
  2454954.795671             -54.986                          15.760
  2454983.708935            -106.034                            -NaN
  2455198.987211              -7.778                          23.960
  2455200.006852             -65.999                          22.314
  2455201.030613              -3.228                          19.566
  2455202.025764             -10.120                          19.448
  2455203.032014             -32.429                          14.081
  2455222.858866             -37.745                          21.343
  2455223.864641             -54.659                          23.981
  2455259.868056              16.400                          18.870
  2455260.860752               7.617                          18.819
  2455261.858519               9.170                          20.445
  2455280.816470              39.020                          33.832
  2455281.814850              37.463                          21.747
  2455283.852164              78.182                          19.444
  2455284.788426              35.656                          17.930
  2455311.727222              49.896                          20.617
  2455314.670521             -36.237                          22.488
  2455553.021551              62.568                          21.453
  2455557.013947              34.871                          20.501
  2455558.013808              38.372                          19.700
