\STAR_ID                            = "2MASS J03011850+7114300"
\DATA_CATEGORY                      = "Planet Radial Velocity Curve"
\NUMBER_OF_POINTS                   = "40"
\TIME_REFERENCE_FRAME               = "FCJD"
\MINIMUM_DATE                       = "2454781.612616"
\DATE_UNITS                         = "days"
\MAXIMUM_DATE                       = "2455556.786181"
\MINIMUM_VALUE                      = "-1486.823"
\VALUE_UNITS                        = "m/s"
\MAXIMUM_VALUE                      = "1048.309"
\REFERENCE                          = "Thomas et al. 2016 (PASP, 128, 5003)"
\BIBCODE                            = "2016PASP..128d5003T"
\TELESCOPE                          = "2.5m Sloan Foundation Telescope"
\INSTRUMENT                         = "MARVELS"
\WAVELENGTH_CALIBRATION_TECHNIQUE   = "Tungsten Iodine Lamp"
\OBSERVATORY_SITE                   = "Apache Point Observatory, New Mexico"
\COLUMN_FCJD                        = "Flux Centered Julian Date of observation"
\COLUMN_RADIAL_VELOCITY             = "Radial velocity relative to barycenter"
\COLUMN_RADIAL_VELOCITY_UNCERTAINTY = "Uncertainty in RADIAL_VELOCITY"
|           FCJD |   Radial_Velocity |   Radial_Velocity_Uncertainty |
|         double |            double |                        double |
|           days |               m/s |                           m/s |
  2454781.612616                -NaN                            -NaN
  2454782.751944           -1258.852                          70.934
  2454782.796389           -1486.823                         110.597
  2454783.903218           -1265.631                         138.997
  2454786.948565           -1317.832                         200.599
  2454787.959016                -NaN                            -NaN
  2454788.971620           -1379.727                         162.909
  2454807.748819           -1270.799                          97.036
  2454808.775741                -NaN                            -NaN
  2454811.697870           -1187.820                          97.600
  2454812.834861           -1027.857                         114.921
  2454839.762199                -NaN                            -NaN
  2454846.715046            -877.700                         124.449
  2454867.673900           -1046.518                         117.964
  2454868.684861                -NaN                            -NaN
  2454869.669340           -1072.105                          94.464
  2455138.737060                -NaN                            -NaN
  2455142.844884            -157.402                          94.888
  2455143.816806            -194.385                          82.346
  2455197.774572            -231.522                         115.151
  2455198.742164             -59.781                          75.548
  2455223.680174              24.077                          73.195
  2455425.953576             367.822                          84.154
  2455428.951898             573.032                         136.756
  2455441.845799             685.749                          90.422
  2455484.742708             745.049                         107.445
  2455487.712917             803.813                         108.419
  2455488.737419             708.993                          90.626
  2455497.964259            1048.309                         140.089
  2455498.939144             393.125                         104.115
  2455500.814190             857.156                          75.441
  2455519.719051             625.649                          73.526
  2455521.682546            1045.446                          90.182
  2455526.819387             706.745                         103.706
  2455527.841875             662.084                          88.852
  2455543.724444             974.253                          89.612
  2455544.745058             712.986                          78.240
  2455545.691794            1016.596                         118.904
  2455553.796736             931.664                            -NaN
  2455556.786181             952.206                          91.253
