\STAR_ID                            = "2MASS J02512688+7052324"
\DATA_CATEGORY                      = "Planet Radial Velocity Curve"
\NUMBER_OF_POINTS                   = "40"
\TIME_REFERENCE_FRAME               = "FCJD"
\MINIMUM_DATE                       = "2454781.612616"
\DATE_UNITS                         = "days"
\MAXIMUM_DATE                       = "2455556.786181"
\MINIMUM_VALUE                      = "-217.951"
\VALUE_UNITS                        = "m/s"
\MAXIMUM_VALUE                      = "407.988"
\REFERENCE                          = "Thomas et al. 2016 (PASP, 128, 5003)"
\BIBCODE                            = "2016PASP..128d5003T"
\TELESCOPE                          = "2.5m Sloan Foundation Telescope"
\INSTRUMENT                         = "MARVELS"
\WAVELENGTH_CALIBRATION_TECHNIQUE   = "Tungsten Iodine Lamp"
\OBSERVATORY_SITE                   = "Apache Point Observatory, New Mexico"
\COLUMN_FCJD                        = "Flux Centered Julian Date of observation"
\COLUMN_RADIAL_VELOCITY             = "Radial velocity relative to barycenter"
\COLUMN_RADIAL_VELOCITY_UNCERTAINTY = "Uncertainty in RADIAL_VELOCITY"
|           FCJD |   Radial_Velocity |   Radial_Velocity_Uncertainty |
|         double |            double |                        double |
|           days |               m/s |                           m/s |
  2454781.612616              -1.164                         113.267
  2454782.751944             -15.041                         119.662
  2454782.796389             103.904                         114.744
  2454783.903218             257.031                         102.335
  2454786.948565             407.988                         122.933
  2454787.959016                -NaN                            -NaN
  2454788.971620             -26.385                         122.607
  2454807.748819             106.246                          96.846
  2454808.775741                -NaN                            -NaN
  2454811.697870             -91.234                         102.091
  2454812.834861             -40.505                         136.417
  2454839.762199                -NaN                            -NaN
  2454846.715046             105.469                         139.877
  2454867.673900             -69.453                         140.102
  2454868.684861                -NaN                            -NaN
  2454869.669340            -217.951                          68.625
  2455138.737060              75.484                         142.693
  2455142.844884             -63.664                          82.341
  2455143.816806              48.071                          90.294
  2455197.774572             -52.855                         110.177
  2455198.742164            -117.303                            -NaN
  2455223.680174            -143.391                          59.556
  2455425.953576            -142.004                          77.536
  2455428.951898              27.915                         118.076
  2455441.845799            -103.068                          77.022
  2455484.742708             -39.255                          69.108
  2455487.712917              87.983                         111.277
  2455488.737419              -6.446                          68.747
  2455497.964259             -24.118                          88.489
  2455498.939144             140.074                          90.017
  2455500.814190              78.134                          77.998
  2455519.719051            -175.029                          71.687
  2455521.682546             180.394                          65.284
  2455526.819387            -124.200                          73.378
  2455527.841875             -98.132                          64.219
  2455543.724444              61.155                          51.877
  2455544.745058             -36.773                          57.739
  2455545.691794            -148.811                          80.542
  2455553.796736              43.860                          66.974
  2455556.786181              13.076                          72.060
