\STAR_ID                            = "2MASS J00441312+2042151"
\DATA_CATEGORY                      = "Planet Radial Velocity Curve"
\NUMBER_OF_POINTS                   = "36"
\TIME_REFERENCE_FRAME               = "FCJD"
\MINIMUM_DATE                       = "2454778.750093"
\DATE_UNITS                         = "days"
\MAXIMUM_DATE                       = "2455553.690671"
\MINIMUM_VALUE                      = "-83603.891"
\VALUE_UNITS                        = "m/s"
\MAXIMUM_VALUE                      = "3355.626"
\REFERENCE                          = "Thomas et al. 2016 (PASP, 128, 5003)"
\BIBCODE                            = "2016PASP..128d5003T"
\TELESCOPE                          = "2.5m Sloan Foundation Telescope"
\INSTRUMENT                         = "MARVELS"
\WAVELENGTH_CALIBRATION_TECHNIQUE   = "Tungsten Iodine Lamp"
\OBSERVATORY_SITE                   = "Apache Point Observatory, New Mexico"
\COLUMN_FCJD                        = "Flux Centered Julian Date of observation"
\COLUMN_RADIAL_VELOCITY             = "Radial velocity relative to barycenter"
\COLUMN_RADIAL_VELOCITY_UNCERTAINTY = "Uncertainty in RADIAL_VELOCITY"
|           FCJD |   Radial_Velocity |   Radial_Velocity_Uncertainty |
|         double |            double |                        double |
|           days |               m/s |                           m/s |
  2454778.750093            3206.003                         292.600
  2454783.772025                -NaN                            -NaN
  2454785.803299                -NaN                            -NaN
  2454786.764086                -NaN                            -NaN
  2454787.776817            3134.307                         278.655
  2454787.818669            3258.551                         296.724
  2454788.823715                -NaN                            -NaN
  2454838.590764            3342.659                         326.024
  2454840.566551            3174.245                         328.079
  2454841.582257            3122.742                         317.379
  2454868.586586                -NaN                            -NaN
  2454869.576331                -NaN                            -NaN
  2455114.911551            3198.429                         253.302
  2455116.824491                -NaN                            -NaN
  2455141.714838            3009.761                         199.766
  2455143.732072            3006.442                         227.869
  2455144.772928            3015.550                         233.127
  2455198.657164            2790.036                         208.562
  2455372.944722            3051.326                         250.568
  2455381.927593            2630.974                         229.639
  2455468.792535            2862.294                         298.708
  2455469.826632            2682.990                         266.101
  2455470.829965            2638.244                         259.164
  2455471.910150            2756.369                         279.245
  2455485.793229            2857.764                         255.753
  2455486.787269            2506.058                         243.581
  2455487.755880            2721.248                         243.836
  2455488.778299            3031.003                         234.488
  2455512.654525            3177.652                         234.064
  2455513.652836            3201.979                         209.099
  2455513.737454            3355.626                         215.891
  2455523.736678            2982.926                         221.267
  2455526.730289            3016.921                         243.066
  2455542.596968            2910.792                         207.018
  2455544.613727            2961.008                         234.835
  2455553.690671          -83603.891                            -NaN
