\STAR_ID                            = "TYC 2934-01915-1"
\DATA_CATEGORY                      = "Planet Radial Velocity Curve"
\NUMBER_OF_POINTS                   = "33"
\TIME_REFERENCE_FRAME               = "FCJD"
\MINIMUM_DATE                       = "2454779.801817"
\DATE_UNITS                         = "days"
\MAXIMUM_DATE                       = "2455550.880475"
\MINIMUM_VALUE                      = "-9763.501"
\VALUE_UNITS                        = "m/s"
\MAXIMUM_VALUE                      = "709.491"
\REFERENCE                          = "Thomas et al. 2016 (PASP, 128, 5003)"
\BIBCODE                            = "2016PASP..128d5003T"
\TELESCOPE                          = "2.5m Sloan Foundation Telescope"
\INSTRUMENT                         = "MARVELS"
\WAVELENGTH_CALIBRATION_TECHNIQUE   = "Tungsten Iodine Lamp"
\OBSERVATORY_SITE                   = "Apache Point Observatory, New Mexico"
\COLUMN_FCJD                        = "Flux Centered Julian Date of observation"
\COLUMN_RADIAL_VELOCITY             = "Radial velocity relative to barycenter"
\COLUMN_RADIAL_VELOCITY_UNCERTAINTY = "Uncertainty in RADIAL_VELOCITY"
|           FCJD |   Radial_Velocity |   Radial_Velocity_Uncertainty |
|         double |            double |                        double |
|           days |               m/s |                           m/s |
  2454779.801817           -9763.501                            -NaN
  2454843.864317                -NaN                            -NaN
  2454844.820810                -NaN                            -NaN
  2454845.828252                -NaN                            -NaN
  2454846.819491                -NaN                            -NaN
  2454847.768333                -NaN                            -NaN
  2454874.739792             599.593                         115.892
  2454876.772222             559.706                         129.054
  2455135.869942             353.935                         112.690
  2455136.840961             414.284                          89.710
  2455137.856562             483.868                         120.116
  2455138.886354             434.148                          98.756
  2455139.780243             444.436                         124.215
  2455139.966458             436.031                          96.367
  2455143.860995             477.223                          91.628
  2455144.858519             204.671                         107.040
  2455145.860833             449.757                         105.896
  2455171.893970             545.316                         106.887
  2455172.851933             709.491                         121.859
  2455200.912731             467.351                          90.876
  2455254.773553             374.124                         116.231
  2455258.749803             558.889                         112.990
  2455281.653808             646.414                         170.570
  2455466.869120             610.441                         113.191
  2455466.911262             573.443                          86.248
  2455487.843125             360.715                          92.284
  2455488.863183                -NaN                            -NaN
  2455489.873241                -NaN                            -NaN
  2455494.902627             444.363                         124.797
  2455500.905764             466.722                         115.829
  2455521.825150             394.240                         105.535
  2455522.850370             475.597                         111.983
  2455550.880475           -1721.256                         206.350
