\STAR_ID                            = "2MASS J06153467+4013054"
\DATA_CATEGORY                      = "Planet Radial Velocity Curve"
\NUMBER_OF_POINTS                   = "33"
\TIME_REFERENCE_FRAME               = "FCJD"
\MINIMUM_DATE                       = "2454779.801817"
\DATE_UNITS                         = "days"
\MAXIMUM_DATE                       = "2455550.880475"
\MINIMUM_VALUE                      = "-1640.810"
\VALUE_UNITS                        = "m/s"
\MAXIMUM_VALUE                      = "312.870"
\REFERENCE                          = "Thomas et al. 2016 (PASP, 128, 5003)"
\BIBCODE                            = "2016PASP..128d5003T"
\TELESCOPE                          = "2.5m Sloan Foundation Telescope"
\INSTRUMENT                         = "MARVELS"
\WAVELENGTH_CALIBRATION_TECHNIQUE   = "Tungsten Iodine Lamp"
\OBSERVATORY_SITE                   = "Apache Point Observatory, New Mexico"
\COLUMN_FCJD                        = "Flux Centered Julian Date of observation"
\COLUMN_RADIAL_VELOCITY             = "Radial velocity relative to barycenter"
\COLUMN_RADIAL_VELOCITY_UNCERTAINTY = "Uncertainty in RADIAL_VELOCITY"
|           FCJD |   Radial_Velocity |   Radial_Velocity_Uncertainty |
|         double |            double |                        double |
|           days |               m/s |                           m/s |
  2454779.801817                -NaN                            -NaN
  2454843.864317                -NaN                            -NaN
  2454844.820810                -NaN                            -NaN
  2454845.828252                -NaN                            -NaN
  2454846.819491              39.582                         154.181
  2454847.768333                -NaN                            -NaN
  2454874.739792             -13.683                         194.707
  2454876.772222                -NaN                            -NaN
  2455135.869942             243.859                         109.811
  2455136.840961              -9.080                          95.686
  2455137.856562               0.020                         159.705
  2455138.886354             172.356                          99.708
  2455139.780243              42.198                         137.901
  2455139.966458             131.197                          90.439
  2455143.860995             115.517                         112.773
  2455144.858519              54.614                          74.422
  2455145.860833             -58.040                         101.601
  2455171.893970              51.455                         102.210
  2455172.851933              27.357                         148.413
  2455200.912731             130.057                         143.485
  2455254.773553             151.707                         117.951
  2455258.749803             -73.460                         161.102
  2455281.653808            -449.483                         175.276
  2455466.869120             312.870                         160.812
  2455466.911262             110.383                          96.633
  2455487.843125             163.585                            -NaN
  2455488.863183             216.376                         131.037
  2455489.873241             102.743                         111.180
  2455494.902627             127.617                          74.269
  2455500.905764             138.363                         103.404
  2455521.825150             -87.299                         134.406
  2455522.850370                -NaN                            -NaN
  2455550.880475           -1640.810                         200.969
