\STAR_ID                            = "2MASS J06154005+4210095"
\DATA_CATEGORY                      = "Planet Radial Velocity Curve"
\NUMBER_OF_POINTS                   = "33"
\TIME_REFERENCE_FRAME               = "FCJD"
\MINIMUM_DATE                       = "2454779.801817"
\DATE_UNITS                         = "days"
\MAXIMUM_DATE                       = "2455550.880475"
\MINIMUM_VALUE                      = "-951.331"
\VALUE_UNITS                        = "m/s"
\MAXIMUM_VALUE                      = "279.648"
\REFERENCE                          = "Thomas et al. 2016 (PASP, 128, 5003)"
\BIBCODE                            = "2016PASP..128d5003T"
\TELESCOPE                          = "2.5m Sloan Foundation Telescope"
\INSTRUMENT                         = "MARVELS"
\WAVELENGTH_CALIBRATION_TECHNIQUE   = "Tungsten Iodine Lamp"
\OBSERVATORY_SITE                   = "Apache Point Observatory, New Mexico"
\COLUMN_FCJD                        = "Flux Centered Julian Date of observation"
\COLUMN_RADIAL_VELOCITY             = "Radial velocity relative to barycenter"
\COLUMN_RADIAL_VELOCITY_UNCERTAINTY = "Uncertainty in RADIAL_VELOCITY"
|           FCJD |   Radial_Velocity |   Radial_Velocity_Uncertainty |
|         double |            double |                        double |
|           days |               m/s |                           m/s |
  2454779.801817                -NaN                            -NaN
  2454843.864317             106.555                         129.629
  2454844.820810                -NaN                            -NaN
  2454845.828252                -NaN                            -NaN
  2454846.819491                -NaN                            -NaN
  2454847.768333                -NaN                            -NaN
  2454874.739792             -23.537                          50.968
  2454876.772222             -52.544                          82.307
  2455135.869942              20.202                          52.682
  2455136.840961             -38.055                            -NaN
  2455137.856562              36.376                          68.427
  2455138.886354              45.667                          55.405
  2455139.780243            -125.881                          61.927
  2455139.966458            -134.181                          68.470
  2455143.860995              35.986                          43.363
  2455144.858519            -166.156                          57.262
  2455145.860833              67.352                          69.415
  2455171.893970              17.729                          58.212
  2455172.851933            -134.280                          87.744
  2455200.912731            -140.600                          59.974
  2455254.773553              93.522                          71.139
  2455258.749803              63.626                          82.796
  2455281.653808             279.648                          71.140
  2455466.869120              52.789                          88.590
  2455466.911262             127.765                          85.413
  2455487.843125             134.851                          58.796
  2455488.863183             258.731                         101.164
  2455489.873241             264.152                          69.674
  2455494.902627             152.550                          81.666
  2455500.905764              44.964                          51.847
  2455521.825150             -44.405                          68.113
  2455522.850370               8.508                          69.515
  2455550.880475            -951.331                         105.231
