\STAR_ID                            = "2MASS J06193573+4039040"
\DATA_CATEGORY                      = "Planet Radial Velocity Curve"
\NUMBER_OF_POINTS                   = "33"
\TIME_REFERENCE_FRAME               = "FCJD"
\MINIMUM_DATE                       = "2454779.801817"
\DATE_UNITS                         = "days"
\MAXIMUM_DATE                       = "2455550.880475"
\MINIMUM_VALUE                      = "-5274.500"
\VALUE_UNITS                        = "m/s"
\MAXIMUM_VALUE                      = "393.080"
\REFERENCE                          = "Thomas et al. 2016 (PASP, 128, 5003)"
\BIBCODE                            = "2016PASP..128d5003T"
\TELESCOPE                          = "2.5m Sloan Foundation Telescope"
\INSTRUMENT                         = "MARVELS"
\WAVELENGTH_CALIBRATION_TECHNIQUE   = "Tungsten Iodine Lamp"
\OBSERVATORY_SITE                   = "Apache Point Observatory, New Mexico"
\COLUMN_FCJD                        = "Flux Centered Julian Date of observation"
\COLUMN_RADIAL_VELOCITY             = "Radial velocity relative to barycenter"
\COLUMN_RADIAL_VELOCITY_UNCERTAINTY = "Uncertainty in RADIAL_VELOCITY"
|           FCJD |   Radial_Velocity |   Radial_Velocity_Uncertainty |
|         double |            double |                        double |
|           days |               m/s |                           m/s |
  2454779.801817           -5274.500                            -NaN
  2454843.864317                -NaN                            -NaN
  2454844.820810                -NaN                            -NaN
  2454845.828252                -NaN                            -NaN
  2454846.819491             393.080                         151.127
  2454847.768333                -NaN                            -NaN
  2454874.739792             389.553                         110.072
  2454876.772222             183.230                         126.491
  2455135.869942             263.102                         113.032
  2455136.840961             278.169                         112.121
  2455137.856562             312.007                         114.106
  2455138.886354             346.169                         103.991
  2455139.780243             330.930                          96.108
  2455139.966458             315.037                         102.505
  2455143.860995             236.889                         106.555
  2455144.858519             259.582                         119.410
  2455145.860833             203.722                         111.610
  2455171.893970              78.682                         125.550
  2455172.851933             125.645                         119.014
  2455200.912731                -NaN                            -NaN
  2455254.773553             210.000                         117.086
  2455258.749803             129.406                         129.828
  2455281.653808            -105.977                         117.925
  2455466.869120             370.965                         113.308
  2455466.911262             344.123                         112.389
  2455487.843125             234.740                         115.931
  2455488.863183             301.498                         125.765
  2455489.873241             150.753                         127.180
  2455494.902627             243.397                         103.715
  2455500.905764             185.503                         112.474
  2455521.825150             101.042                         133.733
  2455522.850370                -NaN                            -NaN
  2455550.880475            -606.746                         140.669
