\STAR_ID                            = "2MASS J06154005+4210095"
\DATA_CATEGORY                      = "Planet Radial Velocity Curve"
\NUMBER_OF_POINTS                   = "33"
\TIME_REFERENCE_FRAME               = "FCJD"
\MINIMUM_DATE                       = "2454779.801817"
\DATE_UNITS                         = "days"
\MAXIMUM_DATE                       = "2455550.880475"
\MINIMUM_VALUE                      = "-1303.032"
\VALUE_UNITS                        = "m/s"
\MAXIMUM_VALUE                      = "182.954"
\REFERENCE                          = "Thomas et al. 2016 (PASP, 128, 5003)"
\BIBCODE                            = "2016PASP..128d5003T"
\TELESCOPE                          = "2.5m Sloan Foundation Telescope"
\INSTRUMENT                         = "MARVELS"
\WAVELENGTH_CALIBRATION_TECHNIQUE   = "Tungsten Iodine Lamp"
\OBSERVATORY_SITE                   = "Apache Point Observatory, New Mexico"
\COLUMN_FCJD                        = "Flux Centered Julian Date of observation"
\COLUMN_RADIAL_VELOCITY             = "Radial velocity relative to barycenter"
\COLUMN_RADIAL_VELOCITY_UNCERTAINTY = "Uncertainty in RADIAL_VELOCITY"
|           FCJD |   Radial_Velocity |   Radial_Velocity_Uncertainty |
|         double |            double |                        double |
|           days |               m/s |                           m/s |
  2454779.801817                -NaN                            -NaN
  2454843.864317                -NaN                            -NaN
  2454844.820810              19.501                         109.098
  2454845.828252             134.135                          91.715
  2454846.819491             -77.710                          83.176
  2454847.768333                -NaN                            -NaN
  2454874.739792              16.592                          65.759
  2454876.772222             -73.071                          60.578
  2455135.869942             178.231                          49.669
  2455136.840961              83.026                            -NaN
  2455137.856562              58.813                          55.230
  2455138.886354              31.961                          55.587
  2455139.780243             -72.385                          66.915
  2455139.966458              -9.686                          51.671
  2455143.860995               1.785                          55.438
  2455144.858519             -38.428                          57.693
  2455145.860833             -86.461                          60.346
  2455171.893970             108.968                          70.344
  2455172.851933               5.753                          99.404
  2455200.912731             -48.409                          84.505
  2455254.773553              44.671                          67.226
  2455258.749803             182.954                          80.914
  2455281.653808             123.578                         110.397
  2455466.869120              98.191                          58.974
  2455466.911262              99.945                          68.573
  2455487.843125             173.220                          71.969
  2455488.863183             150.033                          87.252
  2455489.873241             171.478                          90.780
  2455494.902627              85.621                          82.759
  2455500.905764              42.599                          65.108
  2455521.825150            -179.680                          62.228
  2455522.850370              77.807                          71.032
  2455550.880475           -1303.032                         114.505
