\STAR_ID                            = "2MASS J06320138+0407290"
\DATA_CATEGORY                      = "Planet Radial Velocity Curve"
\NUMBER_OF_POINTS                   = "23"
\TIME_REFERENCE_FRAME               = "FCJD"
\MINIMUM_DATE                       = "2454931.613194"
\DATE_UNITS                         = "days"
\MAXIMUM_DATE                       = "2455557.831134"
\MINIMUM_VALUE                      = "-15324.341"
\VALUE_UNITS                        = "m/s"
\MAXIMUM_VALUE                      = "15136.697"
\REFERENCE                          = "Thomas et al. 2016 (PASP, 128, 5003)"
\BIBCODE                            = "2016PASP..128d5003T"
\TELESCOPE                          = "2.5m Sloan Foundation Telescope"
\INSTRUMENT                         = "MARVELS"
\WAVELENGTH_CALIBRATION_TECHNIQUE   = "Tungsten Iodine Lamp"
\OBSERVATORY_SITE                   = "Apache Point Observatory, New Mexico"
\COLUMN_FCJD                        = "Flux Centered Julian Date of observation"
\COLUMN_RADIAL_VELOCITY             = "Radial velocity relative to barycenter"
\COLUMN_RADIAL_VELOCITY_UNCERTAINTY = "Uncertainty in RADIAL_VELOCITY"
|           FCJD |   Radial_Velocity |   Radial_Velocity_Uncertainty |
|         double |            double |                        double |
|           days |               m/s |                           m/s |
  2454931.613194          -15324.341                            -NaN
  2455136.989213          -13308.135                          66.571
  2455138.004051             924.892                         143.129
  2455138.980613           12945.762                          86.687
  2455160.794641           11352.723                         110.036
  2455161.794907           -9921.016                          91.524
  2455162.815845          -11275.979                         129.909
  2455192.832674           -9475.639                         104.167
  2455199.709282            2176.052                          95.418
  2455468.925185           -1383.496                         125.222
  2455469.913900          -12791.407                          99.197
  2455494.861863           -8066.336                         117.530
  2455496.839803            3678.438                         184.015
  2455519.807639            7643.572                          93.325
  2455521.783229           -6365.644                         121.871
  2455522.808912            9999.357                          85.899
  2455523.783241           13101.508                          98.904
  2455543.767384            3904.737                          98.546
  2455544.791458           15136.697                          83.115
  2455545.820926           -1923.400                          95.896
  2455550.836285          -13156.040                         137.009
  2455556.835694            8049.992                         111.027
  2455557.831134           14077.702                          85.741
