\STAR_ID                            = "2MASS J06361429+0617436"
\DATA_CATEGORY                      = "Planet Radial Velocity Curve"
\NUMBER_OF_POINTS                   = "23"
\TIME_REFERENCE_FRAME               = "FCJD"
\MINIMUM_DATE                       = "2454931.613194"
\DATE_UNITS                         = "days"
\MAXIMUM_DATE                       = "2455557.831134"
\MINIMUM_VALUE                      = "-5641.311"
\VALUE_UNITS                        = "m/s"
\MAXIMUM_VALUE                      = "7339.781"
\REFERENCE                          = "Thomas et al. 2016 (PASP, 128, 5003)"
\BIBCODE                            = "2016PASP..128d5003T"
\TELESCOPE                          = "2.5m Sloan Foundation Telescope"
\INSTRUMENT                         = "MARVELS"
\WAVELENGTH_CALIBRATION_TECHNIQUE   = "Tungsten Iodine Lamp"
\OBSERVATORY_SITE                   = "Apache Point Observatory, New Mexico"
\COLUMN_FCJD                        = "Flux Centered Julian Date of observation"
\COLUMN_RADIAL_VELOCITY             = "Radial velocity relative to barycenter"
\COLUMN_RADIAL_VELOCITY_UNCERTAINTY = "Uncertainty in RADIAL_VELOCITY"
|           FCJD |   Radial_Velocity |   Radial_Velocity_Uncertainty |
|         double |            double |                        double |
|           days |               m/s |                           m/s |
  2454931.613194            7339.781                         180.872
  2455136.989213           -4553.908                         231.022
  2455138.004051           -4765.493                         258.197
  2455138.980613           -5101.587                         235.794
  2455160.794641           -3910.958                         249.571
  2455161.794907           -3584.496                         252.854
  2455162.815845           -3205.330                         218.577
  2455192.832674            7191.076                         161.798
  2455199.709282            1790.872                         111.352
  2455468.925185           -1114.285                         179.752
  2455469.913900           -1369.625                         173.186
  2455494.861863           -5641.311                         327.746
  2455496.839803           -4206.285                         246.396
  2455519.807639             982.839                         104.861
  2455521.783229            2281.869                         112.251
  2455522.808912            3217.877                         121.207
  2455523.783241            4433.644                         111.826
  2455543.767384            4859.170                         150.803
  2455544.791458            4010.928                            -NaN
  2455545.820926            3442.833                         100.912
  2455550.836285             611.605                         127.130
  2455556.835694           -1237.037                         181.657
  2455557.831134           -1472.178                         193.095
