\STAR_ID                            = "2MASS J06362308+0614091"
\DATA_CATEGORY                      = "Planet Radial Velocity Curve"
\NUMBER_OF_POINTS                   = "23"
\TIME_REFERENCE_FRAME               = "FCJD"
\MINIMUM_DATE                       = "2454931.613194"
\DATE_UNITS                         = "days"
\MAXIMUM_DATE                       = "2455557.831134"
\MINIMUM_VALUE                      = "-106.886"
\VALUE_UNITS                        = "m/s"
\MAXIMUM_VALUE                      = "85.600"
\REFERENCE                          = "Thomas et al. 2016 (PASP, 128, 5003)"
\BIBCODE                            = "2016PASP..128d5003T"
\TELESCOPE                          = "2.5m Sloan Foundation Telescope"
\INSTRUMENT                         = "MARVELS"
\WAVELENGTH_CALIBRATION_TECHNIQUE   = "Tungsten Iodine Lamp"
\OBSERVATORY_SITE                   = "Apache Point Observatory, New Mexico"
\COLUMN_FCJD                        = "Flux Centered Julian Date of observation"
\COLUMN_RADIAL_VELOCITY             = "Radial velocity relative to barycenter"
\COLUMN_RADIAL_VELOCITY_UNCERTAINTY = "Uncertainty in RADIAL_VELOCITY"
|           FCJD |   Radial_Velocity |   Radial_Velocity_Uncertainty |
|         double |            double |                        double |
|           days |               m/s |                           m/s |
  2454931.613194            -105.663                          37.731
  2455136.989213             -47.612                           7.972
  2455138.004051             -41.300                           6.501
  2455138.980613             -72.918                            -NaN
  2455160.794641              28.186                          20.374
  2455161.794907              52.844                          22.437
  2455162.815845              83.973                          24.876
  2455192.832674               4.724                          18.082
  2455199.709282              40.607                          17.090
  2455468.925185             -36.821                          20.748
  2455469.913900            -106.886                          22.794
  2455494.861863             -24.821                          21.972
  2455496.839803             -20.713                          24.550
  2455519.807639              20.607                          15.412
  2455521.783229              85.600                          20.655
  2455522.808912              22.096                          18.219
  2455523.783241               3.541                          17.659
  2455543.767384              15.577                          25.765
  2455544.791458              26.578                          17.837
  2455545.820926              75.870                          26.908
  2455550.836285              46.216                          19.032
  2455556.835694             -65.293                          19.852
  2455557.831134              15.611                          19.503
