\STAR_ID                            = "2MASS J06494336+4140170"
\DATA_CATEGORY                      = "Planet Radial Velocity Curve"
\NUMBER_OF_POINTS                   = "30"
\TIME_REFERENCE_FRAME               = "FCJD"
\MINIMUM_DATE                       = "2454779.836308"
\DATE_UNITS                         = "days"
\MAXIMUM_DATE                       = "2455522.893287"
\MINIMUM_VALUE                      = "-1089.967"
\VALUE_UNITS                        = "m/s"
\MAXIMUM_VALUE                      = "524.900"
\REFERENCE                          = "Thomas et al. 2016 (PASP, 128, 5003)"
\BIBCODE                            = "2016PASP..128d5003T"
\TELESCOPE                          = "2.5m Sloan Foundation Telescope"
\INSTRUMENT                         = "MARVELS"
\WAVELENGTH_CALIBRATION_TECHNIQUE   = "Tungsten Iodine Lamp"
\OBSERVATORY_SITE                   = "Apache Point Observatory, New Mexico"
\COLUMN_FCJD                        = "Flux Centered Julian Date of observation"
\COLUMN_RADIAL_VELOCITY             = "Radial velocity relative to barycenter"
\COLUMN_RADIAL_VELOCITY_UNCERTAINTY = "Uncertainty in RADIAL_VELOCITY"
|           FCJD |   Radial_Velocity |   Radial_Velocity_Uncertainty |
|         double |            double |                        double |
|           days |               m/s |                           m/s |
  2454779.836308                -NaN                            -NaN
  2454843.909850             115.371                         149.681
  2454844.872141             524.900                         144.133
  2454845.872431                -NaN                            -NaN
  2454846.863553             195.953                          96.485
  2454847.813762             192.771                         120.034
  2454868.733877             223.551                          89.126
  2454876.813958              -8.377                          82.382
  2454877.807824            -143.728                          86.486
  2454931.660822             179.850                          94.937
  2455136.889190              56.959                         108.909
  2455137.903310              49.870                         109.136
  2455138.933623               9.084                          79.620
  2455139.821701            -239.173                         110.775
  2455140.010162            -120.485                          93.064
  2455145.906493             -62.437                          61.065
  2455171.938009             110.838                          86.621
  2455227.645718            -175.430                         114.600
  2455254.813403           -1089.967                         133.419
  2455258.795764              52.613                          93.359
  2455281.695301              61.475                         104.429
  2455466.953970              47.104                          62.350
  2455467.951331             106.394                          56.906
  2455488.905544              82.418                          63.300
  2455489.913750              32.632                          61.797
  2455489.957708             -49.106                            -NaN
  2455494.949873              10.649                          68.575
  2455520.890069              17.108                          84.319
  2455521.866447             -95.107                          61.280
  2455522.893287             -85.728                          86.928
