\STAR_ID                            = "2MASS J08233712+6243133"
\DATA_CATEGORY                      = "Planet Radial Velocity Curve"
\NUMBER_OF_POINTS                   = "39"
\TIME_REFERENCE_FRAME               = "FCJD"
\MINIMUM_DATE                       = "2454782.949317"
\DATE_UNITS                         = "days"
\MAXIMUM_DATE                       = "2455522.982975"
\MINIMUM_VALUE                      = "-46232.117"
\VALUE_UNITS                        = "m/s"
\MAXIMUM_VALUE                      = "5408.637"
\REFERENCE                          = "Thomas et al. 2016 (PASP, 128, 5003)"
\BIBCODE                            = "2016PASP..128d5003T"
\TELESCOPE                          = "2.5m Sloan Foundation Telescope"
\INSTRUMENT                         = "MARVELS"
\WAVELENGTH_CALIBRATION_TECHNIQUE   = "Tungsten Iodine Lamp"
\OBSERVATORY_SITE                   = "Apache Point Observatory, New Mexico"
\COLUMN_FCJD                        = "Flux Centered Julian Date of observation"
\COLUMN_RADIAL_VELOCITY             = "Radial velocity relative to barycenter"
\COLUMN_RADIAL_VELOCITY_UNCERTAINTY = "Uncertainty in RADIAL_VELOCITY"
|           FCJD |   Radial_Velocity |   Radial_Velocity_Uncertainty |
|         double |            double |                        double |
|           days |               m/s |                           m/s |
  2454782.949317            4981.005                          80.490
  2454783.953981            5306.937                         126.438
  2454786.995926            5074.606                          85.564
  2454788.005799            4898.212                          85.629
  2454789.013183            4964.718                          73.580
  2454807.794734                -NaN                            -NaN
  2454811.862326            5176.660                          98.522
  2454812.886076            4856.198                          84.238
  2454839.811215            5126.327                         113.717
  2454841.009780                -NaN                            -NaN
  2454842.950336                -NaN                            -NaN
  2454843.959711                -NaN                            -NaN
  2454844.973148                -NaN                            -NaN
  2454845.926285                -NaN                            -NaN
  2454846.763750                -NaN                            -NaN
  2454847.859317                -NaN                            -NaN
  2454866.807951            4937.222                         111.600
  2454867.809167            4893.405                          94.978
  2454868.834444            4911.517                          96.900
  2454869.830590            5256.931                         153.425
  2454874.780023            5019.172                         130.739
  2454898.780521          -46120.375                         190.907
  2454901.766516          -46232.117                         179.750
  2454903.598183          -46133.848                         184.320
  2454928.744630            4423.315                         121.162
  2454929.717025            4714.685                         100.522
  2454931.719688            4809.951                          82.612
  2454954.693854            5016.698                         137.144
  2454955.632593            4773.129                          83.314
  2454956.637002            4841.756                          75.223
  2454962.633484            4808.775                          91.115
  2454984.642581            4905.946                         105.962
  2455142.945926            5408.637                         109.775
  2455198.804850            5006.384                         113.901
  2455519.977917            4873.969                            -NaN
  2455520.979097            4872.658                          93.794
  2455521.961007            4941.217                         129.794
  2455522.001053            4968.566                          74.656
  2455522.982975            4717.746                          84.690
