\STAR_ID                            = "2MASS J08233621+6141047"
\DATA_CATEGORY                      = "Planet Radial Velocity Curve"
\NUMBER_OF_POINTS                   = "39"
\TIME_REFERENCE_FRAME               = "FCJD"
\MINIMUM_DATE                       = "2454782.949317"
\DATE_UNITS                         = "days"
\MAXIMUM_DATE                       = "2455522.982975"
\MINIMUM_VALUE                      = "-164.173"
\VALUE_UNITS                        = "m/s"
\MAXIMUM_VALUE                      = "127.249"
\REFERENCE                          = "Thomas et al. 2016 (PASP, 128, 5003)"
\BIBCODE                            = "2016PASP..128d5003T"
\TELESCOPE                          = "2.5m Sloan Foundation Telescope"
\INSTRUMENT                         = "MARVELS"
\WAVELENGTH_CALIBRATION_TECHNIQUE   = "Tungsten Iodine Lamp"
\OBSERVATORY_SITE                   = "Apache Point Observatory, New Mexico"
\COLUMN_FCJD                        = "Flux Centered Julian Date of observation"
\COLUMN_RADIAL_VELOCITY             = "Radial velocity relative to barycenter"
\COLUMN_RADIAL_VELOCITY_UNCERTAINTY = "Uncertainty in RADIAL_VELOCITY"
|           FCJD |   Radial_Velocity |   Radial_Velocity_Uncertainty |
|         double |            double |                        double |
|           days |               m/s |                           m/s |
  2454782.949317             -54.475                          61.598
  2454783.953981             127.249                          73.133
  2454786.995926              62.225                          73.911
  2454788.005799             -35.063                          78.544
  2454789.013183             -14.293                          87.819
  2454807.794734              50.986                         168.607
  2454811.862326              41.106                          95.823
  2454812.886076             -30.345                          79.897
  2454839.811215              78.274                          90.382
  2454841.009780              76.989                         131.089
  2454842.950336                -NaN                            -NaN
  2454843.959711             112.479                         116.619
  2454844.973148              89.083                          92.418
  2454845.926285              63.342                         147.863
  2454846.763750             -64.487                         110.929
  2454847.859317              20.304                         134.318
  2454866.807951              73.664                         153.945
  2454867.809167              60.931                         103.987
  2454868.834444               5.243                          78.918
  2454869.830590              19.472                         113.323
  2454874.780023             -45.932                         149.691
  2454898.780521              25.363                         136.805
  2454901.766516              94.489                         101.738
  2454903.598183              -2.362                          85.670
  2454928.744630             -75.594                         110.987
  2454929.717025            -133.341                          81.701
  2454931.719688            -133.545                         108.050
  2454954.693854             115.187                         101.370
  2454955.632593               4.577                          82.537
  2454956.637002              68.886                          79.749
  2454962.633484              12.050                          95.653
  2454984.642581             -88.506                          85.774
  2455142.945926             -90.963                         130.720
  2455198.804850             -43.979                          81.244
  2455519.977917             -67.443                            -NaN
  2455520.979097             -58.948                          78.792
  2455521.961007             -99.948                         102.561
  2455522.001053               1.495                          97.887
  2455522.982975            -164.173                          99.823
