\STAR_ID                            = "2MASS J08233621+6141047"
\DATA_CATEGORY                      = "Planet Radial Velocity Curve"
\NUMBER_OF_POINTS                   = "39"
\TIME_REFERENCE_FRAME               = "FCJD"
\MINIMUM_DATE                       = "2454782.949317"
\DATE_UNITS                         = "days"
\MAXIMUM_DATE                       = "2455522.982975"
\MINIMUM_VALUE                      = "-227.915"
\VALUE_UNITS                        = "m/s"
\MAXIMUM_VALUE                      = "315.189"
\REFERENCE                          = "Thomas et al. 2016 (PASP, 128, 5003)"
\BIBCODE                            = "2016PASP..128d5003T"
\TELESCOPE                          = "2.5m Sloan Foundation Telescope"
\INSTRUMENT                         = "MARVELS"
\WAVELENGTH_CALIBRATION_TECHNIQUE   = "Tungsten Iodine Lamp"
\OBSERVATORY_SITE                   = "Apache Point Observatory, New Mexico"
\COLUMN_FCJD                        = "Flux Centered Julian Date of observation"
\COLUMN_RADIAL_VELOCITY             = "Radial velocity relative to barycenter"
\COLUMN_RADIAL_VELOCITY_UNCERTAINTY = "Uncertainty in RADIAL_VELOCITY"
|           FCJD |   Radial_Velocity |   Radial_Velocity_Uncertainty |
|         double |            double |                        double |
|           days |               m/s |                           m/s |
  2454782.949317             -83.463                         104.707
  2454783.953981             -60.221                         126.557
  2454786.995926              28.078                          78.930
  2454788.005799             -42.240                         104.686
  2454789.013183               5.637                          88.217
  2454807.794734            -107.902                         155.605
  2454811.862326              47.281                         107.319
  2454812.886076              37.694                          85.281
  2454839.811215             -32.387                         112.038
  2454841.009780              13.664                         111.100
  2454842.950336                -NaN                            -NaN
  2454843.959711             154.489                         114.074
  2454844.973148              -9.119                         170.950
  2454845.926285              35.559                         134.559
  2454846.763750            -227.915                         112.010
  2454847.859317              56.124                         109.491
  2454866.807951             315.189                         125.430
  2454867.809167              29.290                         125.262
  2454868.834444              81.886                         104.946
  2454869.830590             174.027                         137.252
  2454874.780023             102.672                         182.195
  2454898.780521              35.503                         123.490
  2454901.766516              88.314                         124.637
  2454903.598183             -17.133                         109.123
  2454928.744630            -152.615                         114.802
  2454929.717025            -116.604                         106.117
  2454931.719688             -68.461                         123.726
  2454954.693854              53.707                         118.744
  2454955.632593              25.521                          97.524
  2454956.637002              89.708                          82.614
  2454962.633484              12.864                          89.898
  2454984.642581             -41.408                          95.183
  2455142.945926              47.591                         127.112
  2455198.804850              76.060                          85.883
  2455519.977917            -195.077                            -NaN
  2455520.979097             -64.665                          79.973
  2455521.961007             -43.113                          70.535
  2455522.001053             -63.046                          85.484
  2455522.982975            -185.487                          82.858
