\STAR_ID                            = "2MASS J08130792+6032481"
\DATA_CATEGORY                      = "Planet Radial Velocity Curve"
\NUMBER_OF_POINTS                   = "39"
\TIME_REFERENCE_FRAME               = "FCJD"
\MINIMUM_DATE                       = "2454782.949317"
\DATE_UNITS                         = "days"
\MAXIMUM_DATE                       = "2455522.982975"
\MINIMUM_VALUE                      = "-134.004"
\VALUE_UNITS                        = "m/s"
\MAXIMUM_VALUE                      = "190.354"
\REFERENCE                          = "Thomas et al. 2016 (PASP, 128, 5003)"
\BIBCODE                            = "2016PASP..128d5003T"
\TELESCOPE                          = "2.5m Sloan Foundation Telescope"
\INSTRUMENT                         = "MARVELS"
\WAVELENGTH_CALIBRATION_TECHNIQUE   = "Tungsten Iodine Lamp"
\OBSERVATORY_SITE                   = "Apache Point Observatory, New Mexico"
\COLUMN_FCJD                        = "Flux Centered Julian Date of observation"
\COLUMN_RADIAL_VELOCITY             = "Radial velocity relative to barycenter"
\COLUMN_RADIAL_VELOCITY_UNCERTAINTY = "Uncertainty in RADIAL_VELOCITY"
|           FCJD |   Radial_Velocity |   Radial_Velocity_Uncertainty |
|         double |            double |                        double |
|           days |               m/s |                           m/s |
  2454782.949317             190.354                          75.300
  2454783.953981            -100.346                          61.391
  2454786.995926              66.787                          63.819
  2454788.005799               7.081                          68.673
  2454789.013183              32.468                          58.106
  2454807.794734             -74.109                         103.012
  2454811.862326             -93.662                         110.049
  2454812.886076             -53.960                          69.667
  2454839.811215              98.213                          71.422
  2454841.009780             -57.924                          89.220
  2454842.950336              -9.608                          90.560
  2454843.959711             -65.270                          79.250
  2454844.973148              70.812                         132.186
  2454845.926285              40.849                          95.838
  2454846.763750             -63.971                          75.561
  2454847.859317              42.739                          62.467
  2454866.807951              57.417                          83.551
  2454867.809167              24.900                          68.849
  2454868.834444              61.403                          80.391
  2454869.830590               3.349                          85.315
  2454874.780023              61.432                          77.129
  2454898.780521              68.326                          55.019
  2454901.766516              32.485                          54.968
  2454903.598183              55.858                          65.146
  2454928.744630                -NaN                            -NaN
  2454929.717025                -NaN                            -NaN
  2454931.719688                -NaN                            -NaN
  2454954.693854                -NaN                            -NaN
  2454955.632593             -71.243                          75.226
  2454956.637002             -39.441                          67.079
  2454962.633484              54.769                          76.853
  2454984.642581            -134.004                          87.449
  2455142.945926            -101.911                          67.260
  2455198.804850              71.670                          43.240
  2455519.977917             -45.302                            -NaN
  2455520.979097             -23.139                          31.501
  2455521.961007              -3.137                          44.979
  2455522.001053             -27.774                          44.633
  2455522.982975             -76.113                          44.398
