\STAR_ID                            = "2MASS J08145760+6032081"
\DATA_CATEGORY                      = "Planet Radial Velocity Curve"
\NUMBER_OF_POINTS                   = "39"
\TIME_REFERENCE_FRAME               = "FCJD"
\MINIMUM_DATE                       = "2454782.949317"
\DATE_UNITS                         = "days"
\MAXIMUM_DATE                       = "2455522.982975"
\MINIMUM_VALUE                      = "-284.738"
\VALUE_UNITS                        = "m/s"
\MAXIMUM_VALUE                      = "203.209"
\REFERENCE                          = "Thomas et al. 2016 (PASP, 128, 5003)"
\BIBCODE                            = "2016PASP..128d5003T"
\TELESCOPE                          = "2.5m Sloan Foundation Telescope"
\INSTRUMENT                         = "MARVELS"
\WAVELENGTH_CALIBRATION_TECHNIQUE   = "Tungsten Iodine Lamp"
\OBSERVATORY_SITE                   = "Apache Point Observatory, New Mexico"
\COLUMN_FCJD                        = "Flux Centered Julian Date of observation"
\COLUMN_RADIAL_VELOCITY             = "Radial velocity relative to barycenter"
\COLUMN_RADIAL_VELOCITY_UNCERTAINTY = "Uncertainty in RADIAL_VELOCITY"
|           FCJD |   Radial_Velocity |   Radial_Velocity_Uncertainty |
|         double |            double |                        double |
|           days |               m/s |                           m/s |
  2454782.949317             -62.107                          75.476
  2454783.953981             166.566                          89.012
  2454786.995926             -34.554                         100.965
  2454788.005799             -95.925                         110.983
  2454789.013183            -134.541                          83.942
  2454807.794734            -102.294                         138.631
  2454811.862326             -60.102                          88.808
  2454812.886076            -132.264                          89.610
  2454839.811215             -22.792                         100.260
  2454841.009780              74.170                          99.425
  2454842.950336             -50.158                         140.425
  2454843.959711             -93.131                         135.793
  2454844.973148              18.788                         143.691
  2454845.926285            -184.006                         113.976
  2454846.763750              24.456                         123.674
  2454847.859317              97.749                          71.532
  2454866.807951             -45.531                         130.799
  2454867.809167             106.618                          90.994
  2454868.834444                -NaN                            -NaN
  2454869.830590              23.272                         102.773
  2454874.780023             -68.218                          92.481
  2454898.780521              85.875                          62.733
  2454901.766516              90.349                          63.338
  2454903.598183             -21.917                          99.109
  2454928.744630                -NaN                            -NaN
  2454929.717025            -133.922                         122.978
  2454931.719688              87.402                          72.112
  2454954.693854                -NaN                            -NaN
  2454955.632593            -284.738                         143.950
  2454956.637002              60.564                          81.483
  2454962.633484            -161.438                          78.535
  2454984.642581             -10.581                          74.855
  2455142.945926             170.439                          90.715
  2455198.804850             151.067                          69.374
  2455519.977917              83.076                            -NaN
  2455520.979097             203.209                          61.453
  2455521.961007              12.397                          68.328
  2455522.001053             153.223                          76.500
  2455522.982975              88.999                          66.678
