\STAR_ID                            = "2MASS J10224363+4021478"
\DATA_CATEGORY                      = "Planet Radial Velocity Curve"
\NUMBER_OF_POINTS                   = "33"
\TIME_REFERENCE_FRAME               = "FCJD"
\MINIMUM_DATE                       = "2454811.970694"
\DATE_UNITS                         = "days"
\MAXIMUM_DATE                       = "2455553.941806"
\MINIMUM_VALUE                      = "-325.198"
\VALUE_UNITS                        = "m/s"
\MAXIMUM_VALUE                      = "462.290"
\REFERENCE                          = "Thomas et al. 2016 (PASP, 128, 5003)"
\BIBCODE                            = "2016PASP..128d5003T"
\TELESCOPE                          = "2.5m Sloan Foundation Telescope"
\INSTRUMENT                         = "MARVELS"
\WAVELENGTH_CALIBRATION_TECHNIQUE   = "Tungsten Iodine Lamp"
\OBSERVATORY_SITE                   = "Apache Point Observatory, New Mexico"
\COLUMN_FCJD                        = "Flux Centered Julian Date of observation"
\COLUMN_RADIAL_VELOCITY             = "Radial velocity relative to barycenter"
\COLUMN_RADIAL_VELOCITY_UNCERTAINTY = "Uncertainty in RADIAL_VELOCITY"
|           FCJD |   Radial_Velocity |   Radial_Velocity_Uncertainty |
|         double |            double |                        double |
|           days |               m/s |                           m/s |
  2454811.970694            -100.190                          59.201
  2454813.035370             -58.903                          67.190
  2454847.010046              19.810                          76.069
  2454867.904722            -317.762                          82.997
  2454868.926991             -72.292                          96.968
  2454869.918102             -65.932                          97.429
  2454877.968600             -99.590                         112.268
  2454894.762975            -135.864                         120.836
  2454898.914259              -5.029                          52.767
  2454901.860370             427.031                         111.288
  2454902.854456             -25.967                          46.186
  2454905.868576               0.125                          44.578
  2454906.833912            -114.912                          54.377
  2454907.872188               1.205                            -NaN
  2454928.801412             -18.806                          51.974
  2454929.805336             146.803                          68.294
  2454931.766991              84.683                          49.411
  2454934.814757             109.281                          55.018
  2454935.806400             -87.560                          59.860
  2454954.746203             -30.364                          56.926
  2454955.726400             -84.655                          53.417
  2454956.731690               4.312                          72.730
  2454958.681551            -145.747                          59.678
  2454959.690231            -325.198                          64.127
  2454960.685961            -170.134                          65.666
  2454963.680347            -136.059                          75.458
  2454983.656065             -79.290                          62.123
  2454985.643009             -24.156                          43.777
  2454986.704387              66.404                          53.614
  2454987.687315              10.520                          84.331
  2455551.951551             330.029                          60.060
  2455552.931412             462.290                          50.414
  2455553.941806             435.919                          68.062
