\STAR_ID                            = "2MASS J10182238+1151425"
\DATA_CATEGORY                      = "Planet Radial Velocity Curve"
\NUMBER_OF_POINTS                   = "29"
\TIME_REFERENCE_FRAME               = "FCJD"
\MINIMUM_DATE                       = "2454812.015012"
\DATE_UNITS                         = "days"
\MAXIMUM_DATE                       = "2455553.894375"
\MINIMUM_VALUE                      = "-487.682"
\VALUE_UNITS                        = "m/s"
\MAXIMUM_VALUE                      = "183.607"
\REFERENCE                          = "Thomas et al. 2016 (PASP, 128, 5003)"
\BIBCODE                            = "2016PASP..128d5003T"
\TELESCOPE                          = "2.5m Sloan Foundation Telescope"
\INSTRUMENT                         = "MARVELS"
\WAVELENGTH_CALIBRATION_TECHNIQUE   = "Tungsten Iodine Lamp"
\OBSERVATORY_SITE                   = "Apache Point Observatory, New Mexico"
\COLUMN_FCJD                        = "Flux Centered Julian Date of observation"
\COLUMN_RADIAL_VELOCITY             = "Radial velocity relative to barycenter"
\COLUMN_RADIAL_VELOCITY_UNCERTAINTY = "Uncertainty in RADIAL_VELOCITY"
|           FCJD |   Radial_Velocity |   Radial_Velocity_Uncertainty |
|         double |            double |                        double |
|           days |               m/s |                           m/s |
  2454812.015012            -229.976                          94.009
  2454812.983692             157.512                         110.398
  2454846.962824                -NaN                            -NaN
  2454847.959653                -NaN                            -NaN
  2454866.866539             -59.872                          92.086
  2454867.858750              41.860                          64.005
  2454868.882454                -NaN                            -NaN
  2454869.875914             101.364                         114.289
  2454876.955220             183.607                          94.073
  2454877.922697              99.869                         104.376
  2454894.714896              47.549                          80.046
  2454898.870521              35.864                          77.618
  2454902.810856             -60.296                          79.918
  2454905.825810              75.599                          83.323
  2454906.791678             -21.752                          68.417
  2454907.829144            -104.467                          78.196
  2454931.830486            -487.682                         104.878
  2454934.769074            -116.471                          79.791
  2454958.725706             162.671                          98.054
  2454959.739653             109.692                          86.906
  2454960.732419              69.851                          73.540
  2454961.734456              59.177                          67.095
  2454962.729086             128.939                          72.545
  2454963.721655             -31.996                          90.134
  2454987.646817             -57.337                          95.540
  2455261.909097              93.734                          73.197
  2455526.993877             -92.209                          73.238
  2455528.023009             -52.628                            -NaN
  2455553.894375             -52.604                          54.438
