\STAR_ID                            = "2MASS J10261544+4136019"
\DATA_CATEGORY                      = "Planet Radial Velocity Curve"
\NUMBER_OF_POINTS                   = "33"
\TIME_REFERENCE_FRAME               = "FCJD"
\MINIMUM_DATE                       = "2454811.970694"
\DATE_UNITS                         = "days"
\MAXIMUM_DATE                       = "2455553.941806"
\MINIMUM_VALUE                      = "-21089.949"
\VALUE_UNITS                        = "m/s"
\MAXIMUM_VALUE                      = "15710.215"
\REFERENCE                          = "Thomas et al. 2016 (PASP, 128, 5003)"
\BIBCODE                            = "2016PASP..128d5003T"
\TELESCOPE                          = "2.5m Sloan Foundation Telescope"
\INSTRUMENT                         = "MARVELS"
\WAVELENGTH_CALIBRATION_TECHNIQUE   = "Tungsten Iodine Lamp"
\OBSERVATORY_SITE                   = "Apache Point Observatory, New Mexico"
\COLUMN_FCJD                        = "Flux Centered Julian Date of observation"
\COLUMN_RADIAL_VELOCITY             = "Radial velocity relative to barycenter"
\COLUMN_RADIAL_VELOCITY_UNCERTAINTY = "Uncertainty in RADIAL_VELOCITY"
|           FCJD |   Radial_Velocity |   Radial_Velocity_Uncertainty |
|         double |            double |                        double |
|           days |               m/s |                           m/s |
  2454811.970694          -15862.321                          79.996
  2454813.035370          -17560.801                          89.300
  2454847.010046           -9582.658                         102.957
  2454867.904722           11129.777                          59.835
  2454868.926991           13201.911                          58.683
  2454869.918102           14714.058                          59.171
  2454877.968600            7366.426                         108.489
  2454894.762975          -20101.469                         118.629
  2454898.914259          -13220.553                         103.521
  2454901.860370           -2880.406                         147.811
  2454902.854456             921.151                          63.631
  2454905.868576           10653.638                          53.940
  2454906.833912           12937.380                          61.730
  2454907.872188           14558.664                          63.734
  2454928.801412          -19456.916                          81.710
  2454929.805336                -NaN                            -NaN
  2454931.766991          -21089.949                          69.586
  2454934.814757          -18272.646                          76.994
  2454935.806400          -16400.660                          90.808
  2454954.746203            6115.249                         114.637
  2454955.726400            3693.112                          62.655
  2454956.731690            1437.715                          93.950
  2454958.681551                -NaN                            -NaN
  2454959.690231                -NaN                            -NaN
  2454960.685961                -NaN                            -NaN
  2454963.680347                -NaN                            -NaN
  2454983.656065           14049.822                          84.998
  2454985.643009           15710.215                          72.611
  2454986.704387           15473.403                          93.515
  2454987.687315           14878.031                          98.740
  2455551.951551            -763.228                          25.605
  2455552.931412            -850.695                            -NaN
  2455553.941806            -798.248                          26.422
