\STAR_ID                            = "2MASS J10194232+4205088"
\DATA_CATEGORY                      = "Planet Radial Velocity Curve"
\NUMBER_OF_POINTS                   = "33"
\TIME_REFERENCE_FRAME               = "FCJD"
\MINIMUM_DATE                       = "2454811.970694"
\DATE_UNITS                         = "days"
\MAXIMUM_DATE                       = "2455553.941806"
\MINIMUM_VALUE                      = "-327.024"
\VALUE_UNITS                        = "m/s"
\MAXIMUM_VALUE                      = "410.929"
\REFERENCE                          = "Thomas et al. 2016 (PASP, 128, 5003)"
\BIBCODE                            = "2016PASP..128d5003T"
\TELESCOPE                          = "2.5m Sloan Foundation Telescope"
\INSTRUMENT                         = "MARVELS"
\WAVELENGTH_CALIBRATION_TECHNIQUE   = "Tungsten Iodine Lamp"
\OBSERVATORY_SITE                   = "Apache Point Observatory, New Mexico"
\COLUMN_FCJD                        = "Flux Centered Julian Date of observation"
\COLUMN_RADIAL_VELOCITY             = "Radial velocity relative to barycenter"
\COLUMN_RADIAL_VELOCITY_UNCERTAINTY = "Uncertainty in RADIAL_VELOCITY"
|           FCJD |   Radial_Velocity |   Radial_Velocity_Uncertainty |
|         double |            double |                        double |
|           days |               m/s |                           m/s |
  2454811.970694             -38.114                         108.104
  2454813.035370             -82.681                         112.788
  2454847.010046            -119.963                         181.277
  2454867.904722             115.027                          97.108
  2454868.926991              76.929                          97.589
  2454869.918102             144.119                         102.422
  2454877.968600             252.682                         116.531
  2454894.762975             192.195                         165.390
  2454898.914259              64.202                         124.426
  2454901.860370                -NaN                            -NaN
  2454902.854456             108.685                         109.900
  2454905.868576             148.216                          91.991
  2454906.833912              44.794                         117.069
  2454907.872188             120.156                         107.212
  2454928.801412             142.738                          89.121
  2454929.805336             410.929                         128.459
  2454931.766991             279.778                         134.333
  2454934.814757             179.119                          97.481
  2454935.806400              28.301                         112.217
  2454954.746203              46.829                         126.610
  2454955.726400            -286.044                          87.856
  2454956.731690             -73.887                         113.788
  2454958.681551            -303.103                         119.543
  2454959.690231            -327.024                          81.499
  2454960.685961            -214.445                          79.555
  2454963.680347            -236.750                            -NaN
  2454983.656065            -216.759                          92.145
  2454985.643009            -131.324                          82.889
  2454986.704387            -163.406                         101.351
  2454987.687315             -26.193                         107.809
  2455551.951551             -49.966                          92.388
  2455552.931412            -107.021                         105.738
  2455553.941806              21.981                         101.220
