\STAR_ID                            = "2MASS J10191914+1318051"
\DATA_CATEGORY                      = "Planet Radial Velocity Curve"
\NUMBER_OF_POINTS                   = "29"
\TIME_REFERENCE_FRAME               = "FCJD"
\MINIMUM_DATE                       = "2454812.015012"
\DATE_UNITS                         = "days"
\MAXIMUM_DATE                       = "2455553.894375"
\MINIMUM_VALUE                      = "-76556.617"
\VALUE_UNITS                        = "m/s"
\MAXIMUM_VALUE                      = "58792.555"
\REFERENCE                          = "Thomas et al. 2016 (PASP, 128, 5003)"
\BIBCODE                            = "2016PASP..128d5003T"
\TELESCOPE                          = "2.5m Sloan Foundation Telescope"
\INSTRUMENT                         = "MARVELS"
\WAVELENGTH_CALIBRATION_TECHNIQUE   = "Tungsten Iodine Lamp"
\OBSERVATORY_SITE                   = "Apache Point Observatory, New Mexico"
\COLUMN_FCJD                        = "Flux Centered Julian Date of observation"
\COLUMN_RADIAL_VELOCITY             = "Radial velocity relative to barycenter"
\COLUMN_RADIAL_VELOCITY_UNCERTAINTY = "Uncertainty in RADIAL_VELOCITY"
|           FCJD |   Radial_Velocity |   Radial_Velocity_Uncertainty |
|         double |            double |                        double |
|           days |               m/s |                           m/s |
  2454812.015012            8369.246                         177.879
  2454812.983692           42259.199                         211.508
  2454846.962824           58792.555                         257.507
  2454847.959653          -35272.086                         193.295
  2454866.866539          -55211.492                         177.983
  2454867.858750          -37668.105                         198.882
  2454868.882454           58295.773                         271.126
  2454869.875914          -42875.938                         244.467
  2454876.955220          -65899.523                         140.655
  2454877.922697           48473.691                         262.053
  2454894.714896          -25553.492                         210.544
  2454898.870521          -60788.457                         189.577
  2454902.810856           40979.812                         254.026
  2454905.825810           29147.604                         234.176
  2454906.791678           26178.172                         208.516
  2454907.829144          -76556.617                            -NaN
  2454931.830486           18442.125                         251.193
  2454934.769074           38940.293                         236.333
  2454958.725706            6129.412                         195.071
  2454959.739653           39701.594                         241.336
  2454960.732419          -71643.211                         116.171
  2454961.734456           -9113.502                         162.451
  2454962.729086           49828.020                         286.950
  2454963.721655          -62368.574                         154.043
  2454987.646817           53499.504                         280.898
  2455261.909097           49299.754                         282.833
  2455526.993877           19243.621                         249.813
  2455528.023009           27551.053                         218.633
  2455553.894375          -72180.430                         127.240
