\STAR_ID                            = "2MASS J10170930+1353019"
\DATA_CATEGORY                      = "Planet Radial Velocity Curve"
\NUMBER_OF_POINTS                   = "29"
\TIME_REFERENCE_FRAME               = "FCJD"
\MINIMUM_DATE                       = "2454812.015012"
\DATE_UNITS                         = "days"
\MAXIMUM_DATE                       = "2455553.894375"
\MINIMUM_VALUE                      = "-316.109"
\VALUE_UNITS                        = "m/s"
\MAXIMUM_VALUE                      = "218.312"
\REFERENCE                          = "Thomas et al. 2016 (PASP, 128, 5003)"
\BIBCODE                            = "2016PASP..128d5003T"
\TELESCOPE                          = "2.5m Sloan Foundation Telescope"
\INSTRUMENT                         = "MARVELS"
\WAVELENGTH_CALIBRATION_TECHNIQUE   = "Tungsten Iodine Lamp"
\OBSERVATORY_SITE                   = "Apache Point Observatory, New Mexico"
\COLUMN_FCJD                        = "Flux Centered Julian Date of observation"
\COLUMN_RADIAL_VELOCITY             = "Radial velocity relative to barycenter"
\COLUMN_RADIAL_VELOCITY_UNCERTAINTY = "Uncertainty in RADIAL_VELOCITY"
|           FCJD |   Radial_Velocity |   Radial_Velocity_Uncertainty |
|         double |            double |                        double |
|           days |               m/s |                           m/s |
  2454812.015012            -116.886                          70.803
  2454812.983692                -NaN                            -NaN
  2454846.962824             195.559                          87.292
  2454847.959653             218.312                          84.649
  2454866.866539              -5.551                          62.437
  2454867.858750             -87.174                          90.729
  2454868.882454              93.100                          76.246
  2454869.875914              97.556                          83.842
  2454876.955220            -114.298                          98.772
  2454877.922697             -58.750                          95.499
  2454894.714896              70.833                          94.970
  2454898.870521            -117.568                          86.219
  2454902.810856             -70.158                         117.979
  2454905.825810              61.388                          83.821
  2454906.791678             130.459                          84.489
  2454907.829144              68.563                            -NaN
  2454931.830486            -316.109                         108.963
  2454934.769074            -129.025                          86.917
  2454958.725706             -27.595                         101.404
  2454959.739653            -129.609                          91.239
  2454960.732419              17.406                          78.839
  2454961.734456             -25.035                          81.700
  2454962.729086              24.266                          79.424
  2454963.721655             161.246                         117.592
  2454987.646817              -4.522                          89.012
  2455261.909097             -42.794                          88.046
  2455526.993877              77.325                         126.204
  2455528.023009              49.351                          76.221
  2455553.894375             -20.292                         110.381
