\STAR_ID                            = "2MASS J10171363+4218033"
\DATA_CATEGORY                      = "Planet Radial Velocity Curve"
\NUMBER_OF_POINTS                   = "33"
\TIME_REFERENCE_FRAME               = "FCJD"
\MINIMUM_DATE                       = "2454811.970694"
\DATE_UNITS                         = "days"
\MAXIMUM_DATE                       = "2455553.941806"
\MINIMUM_VALUE                      = "-3403.153"
\VALUE_UNITS                        = "m/s"
\MAXIMUM_VALUE                      = "979.386"
\REFERENCE                          = "Thomas et al. 2016 (PASP, 128, 5003)"
\BIBCODE                            = "2016PASP..128d5003T"
\TELESCOPE                          = "2.5m Sloan Foundation Telescope"
\INSTRUMENT                         = "MARVELS"
\WAVELENGTH_CALIBRATION_TECHNIQUE   = "Tungsten Iodine Lamp"
\OBSERVATORY_SITE                   = "Apache Point Observatory, New Mexico"
\COLUMN_FCJD                        = "Flux Centered Julian Date of observation"
\COLUMN_RADIAL_VELOCITY             = "Radial velocity relative to barycenter"
\COLUMN_RADIAL_VELOCITY_UNCERTAINTY = "Uncertainty in RADIAL_VELOCITY"
|           FCJD |   Radial_Velocity |   Radial_Velocity_Uncertainty |
|         double |            double |                        double |
|           days |               m/s |                           m/s |
  2454811.970694             976.919                         126.701
  2454813.035370             726.468                         121.689
  2454847.010046             729.694                         236.708
  2454867.904722             626.038                         141.090
  2454868.926991             413.480                          94.920
  2454869.918102             440.478                          88.792
  2454877.968600             209.794                         167.892
  2454894.762975             811.576                         140.681
  2454898.914259             979.386                         147.542
  2454901.860370                -NaN                            -NaN
  2454902.854456             -40.262                         108.058
  2454905.868576             518.626                          93.186
  2454906.833912             426.700                          83.577
  2454907.872188             314.921                            -NaN
  2454928.801412             488.003                         130.604
  2454929.805336              34.038                         147.186
  2454931.766991             401.192                         153.698
  2454934.814757                -NaN                            -NaN
  2454935.806400             265.113                         111.882
  2454954.746203             250.446                         167.465
  2454955.726400             331.163                         106.896
  2454956.731690             314.092                         194.637
  2454958.681551             285.079                         167.636
  2454959.690231             120.393                         180.964
  2454960.685961             119.804                         121.545
  2454963.680347             -33.918                          99.980
  2454983.656065             301.206                         130.685
  2454985.643009             -74.630                         104.349
  2454986.704387             102.068                         114.605
  2454987.687315             -20.981                         129.947
  2455551.951551           -3347.771                         113.567
  2455552.931412           -3403.153                         105.364
  2455553.941806           -3265.961                         113.390
