\STAR_ID                            = "2MASS J10214854+1138469"
\DATA_CATEGORY                      = "Planet Radial Velocity Curve"
\NUMBER_OF_POINTS                   = "29"
\TIME_REFERENCE_FRAME               = "FCJD"
\MINIMUM_DATE                       = "2454812.015012"
\DATE_UNITS                         = "days"
\MAXIMUM_DATE                       = "2455553.894375"
\MINIMUM_VALUE                      = "-143.823"
\VALUE_UNITS                        = "m/s"
\MAXIMUM_VALUE                      = "117.615"
\REFERENCE                          = "Thomas et al. 2016 (PASP, 128, 5003)"
\BIBCODE                            = "2016PASP..128d5003T"
\TELESCOPE                          = "2.5m Sloan Foundation Telescope"
\INSTRUMENT                         = "MARVELS"
\WAVELENGTH_CALIBRATION_TECHNIQUE   = "Tungsten Iodine Lamp"
\OBSERVATORY_SITE                   = "Apache Point Observatory, New Mexico"
\COLUMN_FCJD                        = "Flux Centered Julian Date of observation"
\COLUMN_RADIAL_VELOCITY             = "Radial velocity relative to barycenter"
\COLUMN_RADIAL_VELOCITY_UNCERTAINTY = "Uncertainty in RADIAL_VELOCITY"
|           FCJD |   Radial_Velocity |   Radial_Velocity_Uncertainty |
|         double |            double |                        double |
|           days |               m/s |                           m/s |
  2454812.015012              21.147                          78.623
  2454812.983692             -35.212                         107.409
  2454846.962824              15.396                          90.520
  2454847.959653             108.112                          77.593
  2454866.866539            -143.823                          87.807
  2454867.858750             -20.509                          80.500
  2454868.882454             -88.056                          91.206
  2454869.875914              47.840                          89.983
  2454876.955220              -3.399                          67.362
  2454877.922697              42.156                          77.341
  2454894.714896             117.615                          83.728
  2454898.870521              51.877                          76.514
  2454902.810856              47.247                          69.068
  2454905.825810              62.905                          65.856
  2454906.791678              58.219                          80.634
  2454907.829144               5.722                          66.660
  2454931.830486              41.004                         101.478
  2454934.769074             -45.266                          63.194
  2454958.725706             -40.428                          85.107
  2454959.739653              41.111                          53.613
  2454960.732419             -28.143                          70.386
  2454961.734456              25.211                          70.608
  2454962.729086             -17.649                          70.672
  2454963.721655             -46.451                          84.885
  2454987.646817              -4.574                          77.577
  2455261.909097             -27.703                          66.575
  2455526.993877              47.082                          80.597
  2455528.023009            -138.669                            -NaN
  2455553.894375             -92.764                          66.983
