\STAR_ID                            = "2MASS J10172708+4017541"
\DATA_CATEGORY                      = "Planet Radial Velocity Curve"
\NUMBER_OF_POINTS                   = "33"
\TIME_REFERENCE_FRAME               = "FCJD"
\MINIMUM_DATE                       = "2454811.970694"
\DATE_UNITS                         = "days"
\MAXIMUM_DATE                       = "2455553.941806"
\MINIMUM_VALUE                      = "-14930.977"
\VALUE_UNITS                        = "m/s"
\MAXIMUM_VALUE                      = "5387.457"
\REFERENCE                          = "Thomas et al. 2016 (PASP, 128, 5003)"
\BIBCODE                            = "2016PASP..128d5003T"
\TELESCOPE                          = "2.5m Sloan Foundation Telescope"
\INSTRUMENT                         = "MARVELS"
\WAVELENGTH_CALIBRATION_TECHNIQUE   = "Tungsten Iodine Lamp"
\OBSERVATORY_SITE                   = "Apache Point Observatory, New Mexico"
\COLUMN_FCJD                        = "Flux Centered Julian Date of observation"
\COLUMN_RADIAL_VELOCITY             = "Radial velocity relative to barycenter"
\COLUMN_RADIAL_VELOCITY_UNCERTAINTY = "Uncertainty in RADIAL_VELOCITY"
|           FCJD |   Radial_Velocity |   Radial_Velocity_Uncertainty |
|         double |            double |                        double |
|           days |               m/s |                           m/s |
  2454811.970694             990.420                          93.497
  2454813.035370             773.032                         152.204
  2454847.010046           -1813.717                         173.555
  2454867.904722           -8096.641                         287.879
  2454868.926991           -8954.875                         244.052
  2454869.918102           -9505.150                         365.211
  2454877.968600                -NaN                            -NaN
  2454894.762975                -NaN                            -NaN
  2454898.914259           -3485.382                         118.117
  2454901.860370            -872.390                         147.828
  2454902.854456            -372.598                            -NaN
  2454905.868576            1161.158                          99.042
  2454906.833912            1431.001                         100.703
  2454907.872188            1824.117                         113.397
  2454928.801412            4887.969                         222.485
  2454929.805336            4409.944                         321.800
  2454931.766991            5024.888                         177.092
  2454934.814757            5387.457                         226.824
  2454935.806400            5011.242                         216.232
  2454954.746203            4552.315                         210.149
  2454955.726400            4560.096                         216.109
  2454956.731690            4887.617                         220.464
  2454958.681551            4656.172                         229.204
  2454959.690231            4326.380                         199.339
  2454960.685961            4192.509                         189.824
  2454963.680347            4344.853                         197.307
  2454983.656065            3595.445                         172.846
  2454985.643009            3188.852                         138.994
  2454986.704387            3158.878                         279.905
  2454987.687315            3341.237                         227.847
  2455551.951551          -13306.317                         367.907
  2455552.931412          -14367.534                         387.327
  2455553.941806          -14930.977                         329.967
