\STAR_ID                            = "2MASS J03102046+2210273"
\DATA_CATEGORY                      = "Planet Radial Velocity Curve"
\NUMBER_OF_POINTS                   = "33"
\TIME_REFERENCE_FRAME               = "FCJD"
\MINIMUM_DATE                       = "2454777.817905"
\DATE_UNITS                         = "days"
\MAXIMUM_DATE                       = "2455557.789294"
\MINIMUM_VALUE                      = "-138.273"
\VALUE_UNITS                        = "m/s"
\MAXIMUM_VALUE                      = "87.733"
\REFERENCE                          = "Thomas et al. 2016 (PASP, 128, 5003)"
\BIBCODE                            = "2016PASP..128d5003T"
\TELESCOPE                          = "2.5m Sloan Foundation Telescope"
\INSTRUMENT                         = "MARVELS"
\WAVELENGTH_CALIBRATION_TECHNIQUE   = "Tungsten Iodine Lamp"
\OBSERVATORY_SITE                   = "Apache Point Observatory, New Mexico"
\COLUMN_FCJD                        = "Flux Centered Julian Date of observation"
\COLUMN_RADIAL_VELOCITY             = "Radial velocity relative to barycenter"
\COLUMN_RADIAL_VELOCITY_UNCERTAINTY = "Uncertainty in RADIAL_VELOCITY"
|           FCJD |   Radial_Velocity |   Radial_Velocity_Uncertainty |
|         double |            double |                        double |
|           days |               m/s |                           m/s |
  2454777.817905              24.947                          48.415
  2454778.795475              30.856                          51.041
  2454779.750648              62.504                          47.122
  2454781.665417               8.028                          60.497
  2454785.846065             -19.702                          46.172
  2454786.898611              27.004                          44.739
  2454787.865069              36.448                          53.755
  2454787.911146              57.180                          53.215
  2454840.708299             -34.522                          68.378
  2454841.684317              82.091                          58.270
  2454842.668819              31.174                          66.822
  2454843.699757              27.340                          61.669
  2454844.710359              55.221                          76.874
  2454868.631551              62.706                          55.477
  2454869.626586              47.756                          57.000
  2455114.972720              13.170                          82.093
  2455141.756748            -109.500                            -NaN
  2455142.794734             -49.620                          34.614
  2455143.775162             -99.399                          25.343
  2455144.815023            -122.768                          36.752
  2455145.820799            -138.273                          36.092
  2455198.700984              18.336                          38.192
  2455470.873924              87.733                          51.036
  2455471.955255             -13.256                          45.867
  2455487.797350            -123.951                          43.285
  2455488.820810               7.114                          49.459
  2455513.696389              36.528                          37.649
  2455526.773472               3.175                          48.265
  2455542.642963              13.694                          40.831
  2455544.656458              24.892                          44.735
  2455545.645567              11.218                          41.039
  2455556.740845             -16.628                          52.540
  2455557.789294             -41.497                          51.128
