\STAR_ID                            = "2MASS J03095448+2050550"
\DATA_CATEGORY                      = "Planet Radial Velocity Curve"
\NUMBER_OF_POINTS                   = "33"
\TIME_REFERENCE_FRAME               = "FCJD"
\MINIMUM_DATE                       = "2454777.817905"
\DATE_UNITS                         = "days"
\MAXIMUM_DATE                       = "2455557.789294"
\MINIMUM_VALUE                      = "-5408.756"
\VALUE_UNITS                        = "m/s"
\MAXIMUM_VALUE                      = "1546.344"
\REFERENCE                          = "Thomas et al. 2016 (PASP, 128, 5003)"
\BIBCODE                            = "2016PASP..128d5003T"
\TELESCOPE                          = "2.5m Sloan Foundation Telescope"
\INSTRUMENT                         = "MARVELS"
\WAVELENGTH_CALIBRATION_TECHNIQUE   = "Tungsten Iodine Lamp"
\OBSERVATORY_SITE                   = "Apache Point Observatory, New Mexico"
\COLUMN_FCJD                        = "Flux Centered Julian Date of observation"
\COLUMN_RADIAL_VELOCITY             = "Radial velocity relative to barycenter"
\COLUMN_RADIAL_VELOCITY_UNCERTAINTY = "Uncertainty in RADIAL_VELOCITY"
|           FCJD |   Radial_Velocity |   Radial_Velocity_Uncertainty |
|         double |            double |                        double |
|           days |               m/s |                           m/s |
  2454777.817905            1433.292                          47.169
  2454778.795475            1336.291                          58.908
  2454779.750648            1342.496                            -NaN
  2454781.665417            1304.604                          57.299
  2454785.846065            1014.374                          45.828
  2454786.898611             958.281                          47.292
  2454787.865069             757.374                          54.781
  2454787.911146             809.574                          55.596
  2454840.708299           -5352.509                          59.652
  2454841.684317           -5379.778                          73.079
  2454842.668819           -5408.756                          78.454
  2454843.699757                -NaN                            -NaN
  2454844.710359                -NaN                            -NaN
  2454868.631551                -NaN                            -NaN
  2454869.626586           -4430.304                          68.372
  2455114.972720             814.633                          61.152
  2455141.756748            1339.476                          53.026
  2455142.794734            1268.598                          57.722
  2455143.775162            1199.336                          44.817
  2455144.815023            1279.392                          55.938
  2455145.820799            1367.597                          81.920
  2455198.700984           -3392.852                          53.785
  2455470.873924             182.968                          50.523
  2455471.955255             121.891                          81.697
  2455487.797350             560.576                          65.940
  2455488.820810             544.178                          74.590
  2455513.696389             912.818                          52.160
  2455526.773472            1090.641                          58.869
  2455542.642963            1409.202                          55.754
  2455544.656458            1370.262                          64.133
  2455545.645567            1546.344                          94.153
  2455556.740845                -NaN                            -NaN
  2455557.789294                -NaN                            -NaN
