\STAR_ID                            = "2MASS J03113381+2058318"
\DATA_CATEGORY                      = "Planet Radial Velocity Curve"
\NUMBER_OF_POINTS                   = "33"
\TIME_REFERENCE_FRAME               = "FCJD"
\MINIMUM_DATE                       = "2454777.817905"
\DATE_UNITS                         = "days"
\MAXIMUM_DATE                       = "2455557.789294"
\MINIMUM_VALUE                      = "-141.373"
\VALUE_UNITS                        = "m/s"
\MAXIMUM_VALUE                      = "169.991"
\REFERENCE                          = "Thomas et al. 2016 (PASP, 128, 5003)"
\BIBCODE                            = "2016PASP..128d5003T"
\TELESCOPE                          = "2.5m Sloan Foundation Telescope"
\INSTRUMENT                         = "MARVELS"
\WAVELENGTH_CALIBRATION_TECHNIQUE   = "Tungsten Iodine Lamp"
\OBSERVATORY_SITE                   = "Apache Point Observatory, New Mexico"
\COLUMN_FCJD                        = "Flux Centered Julian Date of observation"
\COLUMN_RADIAL_VELOCITY             = "Radial velocity relative to barycenter"
\COLUMN_RADIAL_VELOCITY_UNCERTAINTY = "Uncertainty in RADIAL_VELOCITY"
|           FCJD |   Radial_Velocity |   Radial_Velocity_Uncertainty |
|         double |            double |                        double |
|           days |               m/s |                           m/s |
  2454777.817905               2.476                          53.015
  2454778.795475              94.822                          35.528
  2454779.750648              33.394                          39.620
  2454781.665417              64.876                          41.867
  2454785.846065              -5.874                          43.202
  2454786.898611             -25.106                          39.977
  2454787.865069             -41.495                          59.965
  2454787.911146               6.775                          46.629
  2454840.708299             146.110                          54.978
  2454841.684317             169.991                          73.704
  2454842.668819            -107.524                          82.512
  2454843.699757              71.152                          58.998
  2454844.710359              25.213                          55.632
  2454868.631551               9.812                          80.149
  2454869.626586              42.231                          70.866
  2455114.972720              31.974                          61.158
  2455141.756748              51.583                          63.872
  2455142.794734              41.900                          67.243
  2455143.775162              28.848                          55.958
  2455144.815023              95.979                          51.059
  2455145.820799              44.595                          58.135
  2455198.700984             -72.156                          73.218
  2455470.873924             -35.283                            -NaN
  2455471.955255             -30.950                          31.575
  2455487.797350            -123.239                          42.376
  2455488.820810            -114.806                          46.334
  2455513.696389             -90.719                          37.371
  2455526.773472            -129.673                          63.724
  2455542.642963            -141.373                          66.711
  2455544.656458            -136.021                          56.850
  2455545.645567              50.971                          96.363
  2455556.740845              -0.331                          71.288
  2455557.789294              41.846                          83.731
