\STAR_ID                            = "2MASS J03111233+2225228"
\DATA_CATEGORY                      = "Planet Radial Velocity Curve"
\NUMBER_OF_POINTS                   = "33"
\TIME_REFERENCE_FRAME               = "FCJD"
\MINIMUM_DATE                       = "2454777.817905"
\DATE_UNITS                         = "days"
\MAXIMUM_DATE                       = "2455557.789294"
\MINIMUM_VALUE                      = "-2522.488"
\VALUE_UNITS                        = "m/s"
\MAXIMUM_VALUE                      = "1038.279"
\REFERENCE                          = "Thomas et al. 2016 (PASP, 128, 5003)"
\BIBCODE                            = "2016PASP..128d5003T"
\TELESCOPE                          = "2.5m Sloan Foundation Telescope"
\INSTRUMENT                         = "MARVELS"
\WAVELENGTH_CALIBRATION_TECHNIQUE   = "Tungsten Iodine Lamp"
\OBSERVATORY_SITE                   = "Apache Point Observatory, New Mexico"
\COLUMN_FCJD                        = "Flux Centered Julian Date of observation"
\COLUMN_RADIAL_VELOCITY             = "Radial velocity relative to barycenter"
\COLUMN_RADIAL_VELOCITY_UNCERTAINTY = "Uncertainty in RADIAL_VELOCITY"
|           FCJD |   Radial_Velocity |   Radial_Velocity_Uncertainty |
|         double |            double |                        double |
|           days |               m/s |                           m/s |
  2454777.817905             731.615                          64.012
  2454778.795475             900.223                          66.078
  2454779.750648             768.639                          53.165
  2454781.665417             748.087                          54.790
  2454785.846065             577.698                          43.917
  2454786.898611             883.197                          49.898
  2454787.865069             681.715                          43.900
  2454787.911146             669.796                          60.196
  2454840.708299             488.302                          43.138
  2454841.684317                -NaN                            -NaN
  2454842.668819             477.814                          73.102
  2454843.699757                -NaN                            -NaN
  2454844.710359                -NaN                            -NaN
  2454868.631551             286.832                          53.327
  2454869.626586             134.627                          59.583
  2455114.972720           -2177.389                          72.008
  2455141.756748           -2372.858                          40.837
  2455142.794734           -2468.066                          62.426
  2455143.775162           -2427.790                          40.463
  2455144.815023           -2482.852                          48.301
  2455145.820799           -2358.006                          51.795
  2455198.700984           -2522.488                          45.287
  2455470.873924             719.864                          53.450
  2455471.955255             748.690                          51.127
  2455487.797350             729.150                          50.663
  2455488.820810             743.556                          49.612
  2455513.696389             887.949                          38.401
  2455526.773472             852.419                          47.959
  2455542.642963             982.676                          40.165
  2455544.656458             876.542                            -NaN
  2455545.645567             889.346                          45.978
  2455556.740845             992.432                          54.026
  2455557.789294            1038.279                          58.495
