\STAR_ID                            = "2MASS J20013518+4508476"
\DATA_CATEGORY                      = "Planet Radial Velocity Curve"
\NUMBER_OF_POINTS                   = "25"
\TIME_REFERENCE_FRAME               = "FCJD"
\MINIMUM_DATE                       = "2455139.636505"
\DATE_UNITS                         = "days"
\MAXIMUM_DATE                       = "2455542.555382"
\MINIMUM_VALUE                      = "-106.508"
\VALUE_UNITS                        = "m/s"
\MAXIMUM_VALUE                      = "86.874"
\REFERENCE                          = "Thomas et al. 2016 (PASP, 128, 5003)"
\BIBCODE                            = "2016PASP..128d5003T"
\TELESCOPE                          = "2.5m Sloan Foundation Telescope"
\INSTRUMENT                         = "MARVELS"
\WAVELENGTH_CALIBRATION_TECHNIQUE   = "Tungsten Iodine Lamp"
\OBSERVATORY_SITE                   = "Apache Point Observatory, New Mexico"
\COLUMN_FCJD                        = "Flux Centered Julian Date of observation"
\COLUMN_RADIAL_VELOCITY             = "Radial velocity relative to barycenter"
\COLUMN_RADIAL_VELOCITY_UNCERTAINTY = "Uncertainty in RADIAL_VELOCITY"
|           FCJD |   Radial_Velocity |   Radial_Velocity_Uncertainty |
|         double |            double |                        double |
|           days |               m/s |                           m/s |
  2455139.636505              10.594                          54.741
  2455159.571181             -52.356                          85.185
  2455160.559433              -4.907                          63.618
  2455163.605532              17.978                          78.845
  2455428.780000              -7.777                          49.950
  2455431.752986            -106.508                            -NaN
  2455454.701551             -57.193                          55.151
  2455455.736678                -NaN                            -NaN
  2455466.717523             -50.106                          48.376
  2455467.691458                -NaN                            -NaN
  2455469.740139              86.874                          51.717
  2455482.654988               9.891                          65.352
  2455485.662836              47.629                          62.727
  2455486.655706             -42.925                          43.097
  2455487.658021              27.194                          59.445
  2455489.653600              21.320                          67.144
  2455497.688044              74.514                          60.342
  2455513.610012             -35.920                          76.316
  2455514.612454              31.927                          63.619
  2455515.601690             -47.737                          69.363
  2455517.635046              41.207                          62.594
  2455519.633692              -7.482                          59.056
  2455523.601678              37.250                          80.093
  2455524.599884                -NaN                            -NaN
  2455542.555382               6.530                          77.756
