\STAR_ID                            = "2MASS J19364879+3842568"
\DATA_CATEGORY                      = "Planet Radial Velocity Curve"
\NUMBER_OF_POINTS                   = "24"
\TIME_REFERENCE_FRAME               = "FCJD"
\MINIMUM_DATE                       = "2455139.590718"
\DATE_UNITS                         = "days"
\MAXIMUM_DATE                       = "2455544.554537"
\MINIMUM_VALUE                      = "-8650.060"
\VALUE_UNITS                        = "m/s"
\MAXIMUM_VALUE                      = "558.172"
\REFERENCE                          = "Thomas et al. 2016 (PASP, 128, 5003)"
\BIBCODE                            = "2016PASP..128d5003T"
\TELESCOPE                          = "2.5m Sloan Foundation Telescope"
\INSTRUMENT                         = "MARVELS"
\WAVELENGTH_CALIBRATION_TECHNIQUE   = "Tungsten Iodine Lamp"
\OBSERVATORY_SITE                   = "Apache Point Observatory, New Mexico"
\COLUMN_FCJD                        = "Flux Centered Julian Date of observation"
\COLUMN_RADIAL_VELOCITY             = "Radial velocity relative to barycenter"
\COLUMN_RADIAL_VELOCITY_UNCERTAINTY = "Uncertainty in RADIAL_VELOCITY"
|           FCJD |   Radial_Velocity |   Radial_Velocity_Uncertainty |
|         double |            double |                        double |
|           days |               m/s |                           m/s |
  2455139.590718             252.770                          50.189
  2455158.563287             361.918                          52.106
  2455161.560081             320.097                          52.420
  2455163.558333             343.513                          43.309
  2455428.735324             558.172                          25.617
  2455431.710637             538.038                            -NaN
  2455454.652130             438.860                          28.502
  2455455.688484             529.166                          30.752
  2455466.676204             533.107                          28.042
  2455467.643970             513.952                          34.034
  2455482.612975           -8650.060                          63.989
  2455485.620995             394.682                          31.802
  2455486.613900             366.899                          28.156
  2455487.616736             341.646                          36.110
  2455513.568449             262.935                          62.957
  2455514.568391             294.615                          52.522
  2455515.562558             357.211                          46.271
  2455517.564225             326.776                          49.770
  2455517.605683             343.863                          75.284
  2455519.592465             307.132                          45.041
  2455522.556377             191.334                          66.673
  2455523.560417             324.787                          44.765
  2455524.553924             399.432                          48.334
  2455544.554537             349.155                          55.700
