\STAR_ID                            = "2MASS J19420920+3843013"
\DATA_CATEGORY                      = "Planet Radial Velocity Curve"
\NUMBER_OF_POINTS                   = "24"
\TIME_REFERENCE_FRAME               = "FCJD"
\MINIMUM_DATE                       = "2455139.590718"
\DATE_UNITS                         = "days"
\MAXIMUM_DATE                       = "2455544.554537"
\MINIMUM_VALUE                      = "-105.749"
\VALUE_UNITS                        = "m/s"
\MAXIMUM_VALUE                      = "85.658"
\REFERENCE                          = "Thomas et al. 2016 (PASP, 128, 5003)"
\BIBCODE                            = "2016PASP..128d5003T"
\TELESCOPE                          = "2.5m Sloan Foundation Telescope"
\INSTRUMENT                         = "MARVELS"
\WAVELENGTH_CALIBRATION_TECHNIQUE   = "Tungsten Iodine Lamp"
\OBSERVATORY_SITE                   = "Apache Point Observatory, New Mexico"
\COLUMN_FCJD                        = "Flux Centered Julian Date of observation"
\COLUMN_RADIAL_VELOCITY             = "Radial velocity relative to barycenter"
\COLUMN_RADIAL_VELOCITY_UNCERTAINTY = "Uncertainty in RADIAL_VELOCITY"
|           FCJD |   Radial_Velocity |   Radial_Velocity_Uncertainty |
|         double |            double |                        double |
|           days |               m/s |                           m/s |
  2455139.590718              13.688                          36.175
  2455158.563287              32.550                          29.214
  2455161.560081             -94.076                          47.263
  2455163.558333             -32.872                          38.598
  2455428.735324             -87.481                          62.497
  2455431.710637             -17.484                          67.330
  2455454.652130            -105.749                          66.033
  2455455.688484             -19.122                          63.446
  2455466.676204              16.803                          56.618
  2455467.643970             -33.783                          83.049
  2455482.612975              25.424                          48.676
  2455485.620995              80.596                          48.915
  2455486.613900              34.657                          64.934
  2455487.616736              77.346                          47.819
  2455513.568449              27.793                          38.635
  2455514.568391              68.946                          43.360
  2455515.562558              85.658                          33.383
  2455517.564225              69.187                          40.361
  2455517.605683                -NaN                            -NaN
  2455519.592465               8.960                            -NaN
  2455522.556377             -68.649                          31.439
  2455523.560417             -97.517                          42.018
  2455524.553924              -5.929                          50.552
  2455544.554537              21.054                          37.528
