\STAR_ID                            = "2MASS J18440812+4426509"
\DATA_CATEGORY                      = "Planet Radial Velocity Curve"
\NUMBER_OF_POINTS                   = "27"
\TIME_REFERENCE_FRAME               = "FCJD"
\MINIMUM_DATE                       = "2454928.939653"
\DATE_UNITS                         = "days"
\MAXIMUM_DATE                       = "2455370.653819"
\MINIMUM_VALUE                      = "-18337.145"
\VALUE_UNITS                        = "m/s"
\MAXIMUM_VALUE                      = "14556.969"
\REFERENCE                          = "Thomas et al. 2016 (PASP, 128, 5003)"
\BIBCODE                            = "2016PASP..128d5003T"
\TELESCOPE                          = "2.5m Sloan Foundation Telescope"
\INSTRUMENT                         = "MARVELS"
\WAVELENGTH_CALIBRATION_TECHNIQUE   = "Tungsten Iodine Lamp"
\OBSERVATORY_SITE                   = "Apache Point Observatory, New Mexico"
\COLUMN_FCJD                        = "Flux Centered Julian Date of observation"
\COLUMN_RADIAL_VELOCITY             = "Radial velocity relative to barycenter"
\COLUMN_RADIAL_VELOCITY_UNCERTAINTY = "Uncertainty in RADIAL_VELOCITY"
|           FCJD |   Radial_Velocity |   Radial_Velocity_Uncertainty |
|         double |            double |                        double |
|           days |               m/s |                           m/s |
  2454928.939653           13391.504                          62.035
  2454956.780903          -13560.292                          60.576
  2454957.848900           -9636.604                          54.667
  2454986.753449            4722.713                          73.402
  2454990.843773          -17872.217                          78.347
  2455020.756100           14556.969                          74.503
  2455025.715833           -7932.439                          49.179
  2455102.674502          -18337.145                          53.862
  2455104.667211          -15837.199                          43.728
  2455131.622384           14277.900                          66.970
  2455136.622581           -4357.752                          80.883
  2455259.996019           11051.490                          46.530
  2455260.988021           13539.233                          65.489
  2455262.002234           14421.401                          55.280
  2455311.933553           -3809.806                          92.923
  2455314.852164            8423.228                          54.164
  2455320.869144            5379.710                            -NaN
  2455338.826157            8699.360                          49.280
  2455339.742593            3366.623                          50.134
  2455340.735914           -3129.420                          77.585
  2455341.735428           -9916.817                          64.604
  2455346.893623          -13016.300                          63.391
  2455347.873437           -9135.069                          72.737
  2455349.910475              21.168                          45.758
  2455368.707025             938.813                          82.846
  2455369.702512            5142.759                          62.482
  2455370.653819            8608.196                          61.994
