\STAR_ID                            = "2MASS J18440812+4426509"
\DATA_CATEGORY                      = "Planet Radial Velocity Curve"
\NUMBER_OF_POINTS                   = "27"
\TIME_REFERENCE_FRAME               = "FCJD"
\MINIMUM_DATE                       = "2454928.939653"
\DATE_UNITS                         = "days"
\MAXIMUM_DATE                       = "2455370.653819"
\MINIMUM_VALUE                      = "-18222.938"
\VALUE_UNITS                        = "m/s"
\MAXIMUM_VALUE                      = "14555.449"
\REFERENCE                          = "Thomas et al. 2016 (PASP, 128, 5003)"
\BIBCODE                            = "2016PASP..128d5003T"
\TELESCOPE                          = "2.5m Sloan Foundation Telescope"
\INSTRUMENT                         = "MARVELS"
\WAVELENGTH_CALIBRATION_TECHNIQUE   = "Tungsten Iodine Lamp"
\OBSERVATORY_SITE                   = "Apache Point Observatory, New Mexico"
\COLUMN_FCJD                        = "Flux Centered Julian Date of observation"
\COLUMN_RADIAL_VELOCITY             = "Radial velocity relative to barycenter"
\COLUMN_RADIAL_VELOCITY_UNCERTAINTY = "Uncertainty in RADIAL_VELOCITY"
|           FCJD |   Radial_Velocity |   Radial_Velocity_Uncertainty |
|         double |            double |                        double |
|           days |               m/s |                           m/s |
  2454928.939653           13353.035                          62.967
  2454956.780903          -13581.265                          51.302
  2454957.848900           -9690.720                          77.044
  2454986.753449            4605.566                          58.941
  2454990.843773          -18175.773                         118.602
  2455020.756100           14523.538                          52.316
  2455025.715833           -7964.978                          42.629
  2455102.674502          -18222.938                          52.659
  2455104.667211          -15881.835                          55.470
  2455131.622384           14222.488                          58.485
  2455136.622581           -4278.328                          70.282
  2455259.996019           11181.992                          51.496
  2455260.988021           13582.985                          62.546
  2455262.002234           14555.449                          68.591
  2455311.933553           -4038.568                         104.943
  2455314.852164            8608.243                          88.812
  2455320.869144            5446.184                            -NaN
  2455338.826157            8819.416                          57.960
  2455339.742593            3615.507                          50.736
  2455340.735914           -3188.997                          81.269
  2455341.735428           -9935.031                          65.761
  2455346.893623          -13070.358                          62.023
  2455347.873437           -9119.933                          60.214
  2455349.910475             -96.952                          50.711
  2455368.707025             941.722                          68.267
  2455369.702512            5082.172                          74.078
  2455370.653819            8707.380                          54.923
