\STAR_ID                            = "2MASS J18441281+4332024"
\DATA_CATEGORY                      = "Planet Radial Velocity Curve"
\NUMBER_OF_POINTS                   = "27"
\TIME_REFERENCE_FRAME               = "FCJD"
\MINIMUM_DATE                       = "2454928.939653"
\DATE_UNITS                         = "days"
\MAXIMUM_DATE                       = "2455370.653819"
\MINIMUM_VALUE                      = "-300.395"
\VALUE_UNITS                        = "m/s"
\MAXIMUM_VALUE                      = "219.638"
\REFERENCE                          = "Thomas et al. 2016 (PASP, 128, 5003)"
\BIBCODE                            = "2016PASP..128d5003T"
\TELESCOPE                          = "2.5m Sloan Foundation Telescope"
\INSTRUMENT                         = "MARVELS"
\WAVELENGTH_CALIBRATION_TECHNIQUE   = "Tungsten Iodine Lamp"
\OBSERVATORY_SITE                   = "Apache Point Observatory, New Mexico"
\COLUMN_FCJD                        = "Flux Centered Julian Date of observation"
\COLUMN_RADIAL_VELOCITY             = "Radial velocity relative to barycenter"
\COLUMN_RADIAL_VELOCITY_UNCERTAINTY = "Uncertainty in RADIAL_VELOCITY"
|           FCJD |   Radial_Velocity |   Radial_Velocity_Uncertainty |
|         double |            double |                        double |
|           days |               m/s |                           m/s |
  2454928.939653            -208.360                          37.339
  2454956.780903              24.809                          37.996
  2454957.848900             -98.194                          52.571
  2454986.753449            -149.048                          50.455
  2454990.843773               9.095                          50.221
  2455020.756100                -NaN                            -NaN
  2455025.715833                -NaN                            -NaN
  2455102.674502                -NaN                            -NaN
  2455104.667211                -NaN                            -NaN
  2455131.622384               8.218                          23.892
  2455136.622581              47.110                            -NaN
  2455259.996019              78.096                          27.848
  2455260.988021              62.505                          38.711
  2455262.002234             106.785                          28.372
  2455311.933553              34.244                          42.941
  2455314.852164              71.607                          33.843
  2455320.869144            -300.395                          37.059
  2455338.826157              69.019                          31.833
  2455339.742593              77.026                          26.486
  2455340.735914              55.995                          37.794
  2455341.735428             142.456                          24.512
  2455346.893623             161.747                          27.035
  2455347.873437             149.084                          36.602
  2455349.910475             219.638                          36.461
  2455368.707025            -235.065                          38.599
  2455369.702512            -151.701                          45.981
  2455370.653819            -174.671                          40.779
