\STAR_ID                            = "2MASS J18472665+4304519"
\DATA_CATEGORY                      = "Planet Radial Velocity Curve"
\NUMBER_OF_POINTS                   = "27"
\TIME_REFERENCE_FRAME               = "FCJD"
\MINIMUM_DATE                       = "2454928.939653"
\DATE_UNITS                         = "days"
\MAXIMUM_DATE                       = "2455370.653819"
\MINIMUM_VALUE                      = "-442.750"
\VALUE_UNITS                        = "m/s"
\MAXIMUM_VALUE                      = "586.960"
\REFERENCE                          = "Thomas et al. 2016 (PASP, 128, 5003)"
\BIBCODE                            = "2016PASP..128d5003T"
\TELESCOPE                          = "2.5m Sloan Foundation Telescope"
\INSTRUMENT                         = "MARVELS"
\WAVELENGTH_CALIBRATION_TECHNIQUE   = "Tungsten Iodine Lamp"
\OBSERVATORY_SITE                   = "Apache Point Observatory, New Mexico"
\COLUMN_FCJD                        = "Flux Centered Julian Date of observation"
\COLUMN_RADIAL_VELOCITY             = "Radial velocity relative to barycenter"
\COLUMN_RADIAL_VELOCITY_UNCERTAINTY = "Uncertainty in RADIAL_VELOCITY"
|           FCJD |   Radial_Velocity |   Radial_Velocity_Uncertainty |
|         double |            double |                        double |
|           days |               m/s |                           m/s |
  2454928.939653            -336.421                         121.620
  2454956.780903            -225.660                         143.794
  2454957.848900            -375.870                         127.536
  2454986.753449            -376.999                          81.616
  2454990.843773            -349.471                          97.539
  2455020.756100            -442.750                         102.446
  2455025.715833            -402.028                          83.418
  2455102.674502            -110.558                          71.151
  2455104.667211             -63.469                            -NaN
  2455131.622384            -104.312                          68.777
  2455136.622581             -50.216                          72.406
  2455259.996019              67.894                         100.834
  2455260.988021             146.748                         142.325
  2455262.002234              57.443                         125.203
  2455311.933553             586.960                         157.079
  2455314.852164             207.148                         133.693
  2455320.869144              60.712                          88.501
  2455338.826157              62.514                          92.732
  2455339.742593             196.723                         116.875
  2455340.735914             283.406                         143.138
  2455341.735428             -13.442                         113.063
  2455346.893623             129.062                          96.906
  2455347.873437             209.796                         126.171
  2455349.910475             175.072                          85.186
  2455368.707025             234.707                         144.231
  2455369.702512             268.579                         101.422
  2455370.653819             164.430                         136.006
