\STAR_ID                            = "2MASS J18472665+4304519"
\DATA_CATEGORY                      = "Planet Radial Velocity Curve"
\NUMBER_OF_POINTS                   = "27"
\TIME_REFERENCE_FRAME               = "FCJD"
\MINIMUM_DATE                       = "2454928.939653"
\DATE_UNITS                         = "days"
\MAXIMUM_DATE                       = "2455370.653819"
\MINIMUM_VALUE                      = "-519.247"
\VALUE_UNITS                        = "m/s"
\MAXIMUM_VALUE                      = "289.772"
\REFERENCE                          = "Thomas et al. 2016 (PASP, 128, 5003)"
\BIBCODE                            = "2016PASP..128d5003T"
\TELESCOPE                          = "2.5m Sloan Foundation Telescope"
\INSTRUMENT                         = "MARVELS"
\WAVELENGTH_CALIBRATION_TECHNIQUE   = "Tungsten Iodine Lamp"
\OBSERVATORY_SITE                   = "Apache Point Observatory, New Mexico"
\COLUMN_FCJD                        = "Flux Centered Julian Date of observation"
\COLUMN_RADIAL_VELOCITY             = "Radial velocity relative to barycenter"
\COLUMN_RADIAL_VELOCITY_UNCERTAINTY = "Uncertainty in RADIAL_VELOCITY"
|           FCJD |   Radial_Velocity |   Radial_Velocity_Uncertainty |
|         double |            double |                        double |
|           days |               m/s |                           m/s |
  2454928.939653             -92.182                         175.569
  2454956.780903            -351.378                         136.784
  2454957.848900            -519.247                         100.888
  2454986.753449            -204.584                          91.595
  2454990.843773            -256.180                         125.383
  2455020.756100            -285.683                         119.944
  2455025.715833            -205.115                         128.114
  2455102.674502            -124.245                          62.982
  2455104.667211              46.496                            -NaN
  2455131.622384              20.172                          66.933
  2455136.622581            -117.239                          80.507
  2455259.996019             106.388                          88.541
  2455260.988021              45.743                         108.674
  2455262.002234             131.582                         112.957
  2455311.933553             289.772                         124.276
  2455314.852164             171.428                         157.774
  2455320.869144              47.193                         103.821
  2455338.826157             -28.275                         112.722
  2455339.742593             237.418                         119.952
  2455340.735914             126.506                         208.489
  2455341.735428              79.504                         116.122
  2455346.893623              82.866                          87.528
  2455347.873437             211.663                         122.467
  2455349.910475              72.046                         105.907
  2455368.707025             217.861                         129.095
  2455369.702512             158.912                         108.284
  2455370.653819             138.577                         130.810
