\STAR_ID                            = "2MASS J18512777+4833261"
\DATA_CATEGORY                      = "Planet Radial Velocity Curve"
\NUMBER_OF_POINTS                   = "22"
\TIME_REFERENCE_FRAME               = "FCJD"
\MINIMUM_DATE                       = "2454994.836597"
\DATE_UNITS                         = "days"
\MAXIMUM_DATE                       = "2455496.564896"
\MINIMUM_VALUE                      = "-3075.789"
\VALUE_UNITS                        = "m/s"
\MAXIMUM_VALUE                      = "2058.050"
\REFERENCE                          = "Thomas et al. 2016 (PASP, 128, 5003)"
\BIBCODE                            = "2016PASP..128d5003T"
\TELESCOPE                          = "2.5m Sloan Foundation Telescope"
\INSTRUMENT                         = "MARVELS"
\WAVELENGTH_CALIBRATION_TECHNIQUE   = "Tungsten Iodine Lamp"
\OBSERVATORY_SITE                   = "Apache Point Observatory, New Mexico"
\COLUMN_FCJD                        = "Flux Centered Julian Date of observation"
\COLUMN_RADIAL_VELOCITY             = "Radial velocity relative to barycenter"
\COLUMN_RADIAL_VELOCITY_UNCERTAINTY = "Uncertainty in RADIAL_VELOCITY"
|           FCJD |   Radial_Velocity |   Radial_Velocity_Uncertainty |
|         double |            double |                        double |
|           days |               m/s |                           m/s |
  2454994.836597             428.722                          28.262
  2455024.834780              39.728                          42.587
  2455025.848194             -57.775                          44.330
  2455101.659190           -1762.148                            -NaN
  2455103.634051           -1821.829                          22.668
  2455129.623681           -2625.835                          46.720
  2455283.939595           -3075.789                          40.347
  2455289.961215           -2346.341                          30.458
  2455290.938530           -2151.658                          31.536
  2455291.906736           -2066.743                          37.132
  2455315.834155              92.971                          31.631
  2455320.958299             335.083                          31.153
  2455339.836204            1073.251                          29.020
  2455341.821551            1147.733                          27.949
  2455342.781574            1231.389                          28.471
  2455346.809317            1292.580                          28.871
  2455347.789525            1311.809                          28.400
  2455350.920035            1459.499                          37.049
  2455367.724236            1706.047                          30.128
  2455372.862396            1856.024                          48.922
  2455431.799259            2058.050                          32.556
  2455496.564896            1875.233                          25.042
