\STAR_ID                            = "2MASS J16053420+2734228"
\DATA_CATEGORY                      = "Planet Radial Velocity Curve"
\NUMBER_OF_POINTS                   = "21"
\TIME_REFERENCE_FRAME               = "FCJD"
\MINIMUM_DATE                       = "2454955.774201"
\DATE_UNITS                         = "days"
\MAXIMUM_DATE                       = "2455454.609479"
\MINIMUM_VALUE                      = "-1450.470"
\VALUE_UNITS                        = "m/s"
\MAXIMUM_VALUE                      = "388.324"
\REFERENCE                          = "Thomas et al. 2016 (PASP, 128, 5003)"
\BIBCODE                            = "2016PASP..128d5003T"
\TELESCOPE                          = "2.5m Sloan Foundation Telescope"
\INSTRUMENT                         = "MARVELS"
\WAVELENGTH_CALIBRATION_TECHNIQUE   = "Tungsten Iodine Lamp"
\OBSERVATORY_SITE                   = "Apache Point Observatory, New Mexico"
\COLUMN_FCJD                        = "Flux Centered Julian Date of observation"
\COLUMN_RADIAL_VELOCITY             = "Radial velocity relative to barycenter"
\COLUMN_RADIAL_VELOCITY_UNCERTAINTY = "Uncertainty in RADIAL_VELOCITY"
|           FCJD |   Radial_Velocity |   Radial_Velocity_Uncertainty |
|         double |            double |                        double |
|           days |               m/s |                           m/s |
  2454955.774201              51.029                          68.703
  2455199.030394             388.324                          82.075
  2455223.992882           -1450.470                         114.924
  2455224.030868           -1319.702                         109.732
  2455285.841215             -30.223                          99.515
  2455286.850729             244.380                          78.495
  2455289.851227             -52.760                         103.824
  2455290.849479             216.766                         100.745
  2455291.817350             198.626                          97.518
  2455292.826470             182.906                          92.971
  2455312.752396             215.156                          89.975
  2455313.713634             255.972                         166.963
  2455314.713391              90.952                          88.412
  2455320.820058             -13.192                          83.811
  2455338.693553              68.852                          84.938
  2455339.693542              85.903                          75.010
  2455340.688461             176.182                          76.284
  2455341.687847             183.711                          84.502
  2455349.775856              42.212                          84.749
  2455368.659850             267.238                          89.308
  2455454.609479             198.140                            -NaN
